MicroRheology Analysis v9.2.8
10/02/18 5:23:20 PM

Correlation Mode:	Cross
Geometry:	Transmission
Multi-Tau Duration (s):	120
Echo Duration (s):	60
Wavelength (nm):	685.0
Temperature (°C):	20.01
Cuvette Thickness (mm):	10.00
Absorption Length (mm):	Inf
Solvent:	Water
Solvent Refractive Index:	1.329
Particle Radius (nm):	465.0
Mean Count Rate (kHz):	163.8
l* (microns):	1020.79



Lag Time (s)	Mean Square Displacement (micron^2)	Fit Lag Time (s)	Mean Square Displacement Fit (micron^2)	Frequency(rad/s)	G1 (Pa)	G2 (Pa)	G* (Pa)	Complex Viscosity (Pa s)	Loss Tangent (-)	Time (s)	Creep Compliance (1/Pa)

7.212500E-6	2.132948E-6	7.212602E-6	2.096035E-6	0.098083	-0.983552	5.041336	5.136384	52.367593	-5.125642	7.212500E-6	0.000770
8.012500E-6	2.264141E-6	7.850908E-6	2.219167E-6	0.106764	-0.908531	5.622125	5.695061	53.342599	-6.188151	8.012500E-6	0.000817
8.812500E-6	2.405620E-6	8.545640E-6	2.347099E-6	0.116212	-0.802568	6.250475	6.301790	54.226445	-7.788098	8.812500E-6	0.000868
9.612500E-6	2.557402E-6	9.301982E-6	2.479918E-6	0.126497	-0.661276	6.927502	6.958992	55.012940	-10.475957	9.612500E-6	0.000923
1.041250E-5	2.742965E-6	1.012519E-5	2.617635E-6	0.137692	-0.480043	7.654168	7.669206	55.698395	-15.944742	1.041250E-5	0.000990
1.121250E-5	2.860538E-6	1.102115E-5	2.760284E-6	0.149879	-0.254062	8.430731	8.434558	56.275875	-33.183693	1.121250E-5	0.001032
1.201250E-5	3.004129E-6	1.199658E-5	2.907938E-6	0.163143	0.021552	9.257151	9.257176	56.742727	429.535241	1.201250E-5	0.001084
1.281250E-5	3.142520E-6	1.305840E-5	3.060603E-6	0.177579	0.351872	10.133270	10.139377	57.097917	28.798156	1.281250E-5	0.001134
1.441250E-5	3.266775E-6	1.421407E-5	3.218270E-6	0.193295	0.742018	11.058031	11.082898	57.336584	14.902654	1.441250E-5	0.001179
1.601250E-5	3.336616E-6	1.547192E-5	3.380948E-6	0.210404	1.196952	12.029754	12.089155	57.456970	10.050324	1.601250E-5	0.001204
1.761250E-5	3.470968E-6	1.684105E-5	3.548644E-6	0.229022	1.721718	13.046882	13.159994	57.461820	7.577826	1.761250E-5	0.001253
1.921250E-5	3.597914E-6	1.833154E-5	3.721375E-6	0.249291	2.321182	14.106695	14.296389	57.348144	6.077374	1.921250E-5	0.001299
2.081250E-5	3.719827E-6	1.995380E-5	3.899081E-6	0.271354	2.999913	15.206146	15.499237	57.118164	5.068862	2.081250E-5	0.001343
2.241250E-5	3.875880E-6	2.171999E-5	4.081786E-6	0.295368	3.762256	16.341695	16.769185	56.773931	4.343589	2.241250E-5	0.001399
2.401250E-5	4.100513E-6	2.364202E-5	4.269369E-6	0.321505	4.612381	17.509599	18.106908	56.319164	3.796217	2.401250E-5	0.001480
2.561250E-5	4.403728E-6	2.573433E-5	4.461844E-6	0.349962	5.553781	18.704895	19.511986	55.754515	3.367957	2.561250E-5	0.001589
2.881250E-5	4.736346E-6	2.801192E-5	4.659145E-6	0.380934	6.589539	19.922719	20.984202	55.086187	3.023386	2.881250E-5	0.001709
3.201250E-5	5.002107E-6	3.049078E-5	4.861170E-6	0.414645	7.722322	21.157730	22.522962	54.318651	2.739814	3.201250E-5	0.001805
3.521250E-5	5.227323E-6	3.318952E-5	5.067901E-6	0.451340	8.954278	22.404309	24.127415	53.457347	2.502079	3.521250E-5	0.001887
3.841250E-5	5.376007E-6	3.612672E-5	5.279187E-6	0.491286	10.286767	23.656239	25.796031	52.507200	2.299677	3.841250E-5	0.001940
4.161250E-5	5.557572E-6	3.932386E-5	5.494955E-6	0.534766	11.720347	24.907051	27.526855	51.474564	2.125112	4.161250E-5	0.002006
4.481250E-5	5.811597E-6	4.280412E-5	5.715105E-6	0.582086	13.255485	26.150882	29.318535	50.368010	1.972835	4.481250E-5	0.002098
4.801250E-5	6.082326E-6	4.659204E-5	5.939491E-6	0.633607	14.891342	27.380639	31.168116	49.191549	1.838695	4.801250E-5	0.002195
5.121250E-5	6.316351E-6	5.071546E-5	6.168018E-6	0.689682	16.626424	28.589815	33.072881	47.953843	1.719541	5.121250E-5	0.002280
5.761250E-5	6.596718E-6	5.520350E-5	6.400517E-6	0.750711	18.458892	29.772125	35.030132	46.662580	1.612888	5.761250E-5	0.002381
6.401250E-5	6.894073E-6	6.008947E-5	6.636891E-6	0.817145	20.386141	30.921192	37.036669	45.324471	1.516775	6.401250E-5	0.002488
7.041250E-5	7.159228E-6	6.540670E-5	6.876897E-6	0.889463	22.404623	32.030663	39.088752	43.946437	1.429645	7.041250E-5	0.002584
7.681250E-5	7.446794E-6	7.119502E-5	7.120444E-6	0.968179	24.510556	33.094913	41.183014	42.536566	1.350231	7.681250E-5	0.002688
8.321250E-5	7.710988E-6	7.749664E-5	7.367373E-6	1.053875	26.698954	34.107947	43.314965	41.100680	1.277501	8.321250E-5	0.002783
8.961250E-5	7.912305E-6	8.435433E-5	7.617404E-6	1.147144	28.964625	35.064790	45.480644	39.646832	1.210607	8.961250E-5	0.002856
9.601250E-5	8.149743E-6	9.182028E-5	7.870453E-6	1.248666	31.301794	35.960624	47.675663	38.181272	1.148836	9.601250E-5	0.002941
0.000102	8.441563E-6	9.994629E-5	8.126254E-6	1.359163	33.704661	36.791491	49.896072	36.710886	1.091585	0.000102	0.003047
0.000115	8.704845E-6	0.000109	8.384632E-6	1.479451	36.166481	37.553413	52.137062	35.240806	1.038349	0.000115	0.003142
0.000128	9.047534E-6	0.000118	8.645345E-6	1.610378	38.680736	38.243563	54.394572	33.777525	0.988698	0.000128	0.003265
0.000141	9.390449E-6	0.000129	8.908248E-6	1.752909	41.240014	38.859075	56.663626	32.325478	0.942266	0.000141	0.003389
0.000154	9.671303E-6	0.000140	9.173024E-6	1.908040	43.836912	39.398122	58.939689	30.890172	0.898743	0.000154	0.003491
0.000166	9.922049E-6	0.000153	9.439580E-6	2.076876	46.464986	39.859843	61.219295	29.476618	0.857847	0.000166	0.003581
0.000179	1.012131E-5	0.000166	9.707539E-6	2.260703	49.116082	40.242868	63.497070	28.087310	0.819342	0.000179	0.003653
0.000192	1.031577E-5	0.000181	9.976783E-6	2.460756	51.783230	40.547613	65.769383	26.727303	0.783026	0.000192	0.003723
0.000205	1.057412E-5	0.000197	1.024707E-5	2.678516	54.459596	40.774534	68.032420	25.399296	0.748712	0.000205	0.003816
0.000230	1.088152E-5	0.000214	1.051808E-5	2.915569	57.138275	40.924649	70.282355	24.105877	0.716239	0.000230	0.003927
0.000256	1.120436E-5	0.000233	1.078970E-5	3.173627	59.811781	40.999329	72.514785	22.849186	0.685472	0.000256	0.004044
0.000282	1.151272E-5	0.000254	1.106165E-5	3.454451	62.474623	41.001246	74.727376	21.632199	0.656286	0.000282	0.004155
0.000307	1.177920E-5	0.000277	1.133368E-5	3.760190	65.120494	40.932574	76.916541	20.455495	0.628567	0.000307	0.004251
0.000333	1.201822E-5	0.000301	1.160560E-5	4.092993	67.743348	40.796382	79.079113	19.320609	0.602220	0.000333	0.004338
0.000358	1.221390E-5	0.000328	1.187715E-5	4.455208	70.338133	40.596232	81.212726	18.228717	0.577158	0.000358	0.004408
0.000384	1.242287E-5	0.000357	1.214814E-5	4.849475	72.900359	40.335850	83.315323	17.180276	0.553301	0.000384	0.004484
0.000410	1.266210E-5	0.000388	1.241842E-5	5.278685	75.425065	40.019066	85.384226	16.175284	0.530580	0.000410	0.004570
0.000461	1.293869E-5	0.000423	1.268764E-5	5.745799	77.908916	39.650462	87.418295	15.214299	0.508934	0.000461	0.004670
0.000512	1.324528E-5	0.000460	1.295571E-5	6.254301	80.348382	39.234288	89.415836	14.296696	0.488302	0.000512	0.004781
0.000563	1.353399E-5	0.000501	1.322246E-5	6.807802	82.740809	38.775278	91.375947	13.422240	0.468635	0.000563	0.004885
0.000614	1.376583E-5	0.000545	1.348767E-5	7.410356	85.083107	38.278013	93.297060	12.590091	0.449890	0.000614	0.004968
0.000666	1.398859E-5	0.000593	1.375113E-5	8.066089	87.374252	37.747622	95.179530	11.799961	0.432022	0.000666	0.005049
0.000717	1.418240E-5	0.000646	1.401274E-5	8.780010	89.611958	37.188570	97.022125	11.050344	0.414996	0.000717	0.005119
0.000768	1.437976E-5	0.000703	1.427236E-5	9.556930	91.796228	36.606060	98.825863	10.340755	0.398775	0.000768	0.005190
0.000819	1.461049E-5	0.000765	1.452985E-5	10.402842	93.925797	36.004509	100.590158	9.669489	0.383329	0.000819	0.005273
0.000922	1.487175E-5	0.000833	1.478507E-5	11.323501	96.000719	35.388925	102.315757	9.035700	0.368632	0.000922	0.005368
0.001024	1.514986E-5	0.000906	1.503792E-5	12.325624	98.021312	34.763871	104.003386	8.437982	0.354656	0.001024	0.005468
0.001126	1.543069E-5	0.000987	1.528833E-5	13.416414	99.988250	34.133871	105.654017	7.874982	0.341379	0.001126	0.005569
0.001229	1.567275E-5	0.001074	1.553618E-5	14.603718	101.902613	33.503310	107.268888	7.345314	0.328778	0.001229	0.005657
0.001331	1.588935E-5	0.001169	1.578148E-5	15.896116	103.765644	32.876408	108.849286	6.847540	0.316833	0.001331	0.005735
0.001434	1.607934E-5	0.001272	1.602412E-5	17.302836	105.579218	32.257268	110.397023	6.380285	0.305527	0.001434	0.005803
0.001536	1.627416E-5	0.001385	1.626416E-5	18.834204	107.345112	31.649721	111.913707	5.942046	0.294841	0.001536	0.005874
0.001638	1.648987E-5	0.001508	1.650153E-5	20.501148	109.065160	31.057544	113.400970	5.531445	0.284761	0.001638	0.005952
0.001843	1.674302E-5	0.001641	1.673622E-5	22.315355	110.741925	30.484359	114.861091	5.147177	0.275274	0.001843	0.006043
0.002048	1.703018E-5	0.001786	1.696834E-5	24.290078	112.378335	29.933448	116.296610	4.787824	0.266363	0.002048	0.006147
0.002253	1.732699E-5	0.001944	1.719790E-5	26.440018	113.976577	29.407905	117.709324	4.451938	0.258017	0.002253	0.006254
0.002458	1.759009E-5	0.002116	1.742494E-5	28.779977	115.539464	28.910875	119.101664	4.138352	0.250225	0.002458	0.006349
0.002662	1.782201E-5	0.002304	1.764964E-5	31.326708	117.070395	28.445170	120.476574	3.845810	0.242975	0.002662	0.006432
0.002867	1.800495E-5	0.002507	1.787199E-5	34.099251	118.572235	28.013340	121.836457	3.572995	0.236255	0.002867	0.006498
0.003072	1.819399E-5	0.002729	1.809221E-5	37.117243	120.047879	27.617943	123.183782	3.318775	0.230058	0.003072	0.006567
0.003277	1.841232E-5	0.002971	1.831041E-5	40.401883	121.500907	27.261372	124.521696	3.082077	0.224372	0.003277	0.006645
0.003686	1.867884E-5	0.003234	1.852681E-5	43.977641	122.934091	26.945744	125.852548	2.861739	0.219189	0.003686	0.006742
0.004096	1.897788E-5	0.003520	1.874155E-5	47.869022	124.351430	26.673239	127.179951	2.656832	0.214499	0.004096	0.006850
0.004506	1.927319E-5	0.003832	1.895485E-5	52.106016	125.755617	26.445664	128.506219	2.466245	0.210294	0.004506	0.006956
0.004915	1.951761E-5	0.004171	1.916698E-5	56.717350	127.149938	26.264977	129.834340	2.289147	0.206567	0.004915	0.007044
0.005325	1.973336E-5	0.004540	1.937817E-5	61.735999	128.538376	26.132958	131.168005	2.124660	0.203309	0.005325	0.007122
0.005734	1.989993E-5	0.004942	1.958871E-5	67.200563	129.923446	26.051141	132.509485	1.971851	0.200511	0.005734	0.007182
0.006144	2.006868E-5	0.005379	1.979892E-5	73.147310	131.308988	26.021275	133.862456	1.830039	0.198168	0.006144	0.007243
0.006554	2.027473E-5	0.005855	2.000912E-5	79.621367	132.697891	26.044806	135.229665	1.698409	0.196271	0.006554	0.007318
0.007373	2.053433E-5	0.006373	2.021964E-5	86.667534	134.093580	26.123291	136.614474	1.576305	0.194814	0.007373	0.007411
0.008192	2.083028E-5	0.006937	2.043085E-5	94.337340	135.499351	26.258197	138.020169	1.463049	0.193788	0.008192	0.007518
0.009011	2.113757E-5	0.007551	2.064316E-5	102.686457	136.918211	26.450950	139.449810	1.358016	0.193188	0.009011	0.007629
0.009830	2.140353E-5	0.008219	2.085698E-5	111.773829	138.353350	26.703008	140.906707	1.260641	0.193006	0.009830	0.007725
0.010650	2.165032E-5	0.008947	2.107275E-5	121.664877	139.808088	27.015857	142.394375	1.170382	0.193235	0.010650	0.007814
0.011469	2.185419E-5	0.009738	2.129096E-5	132.432093	141.285430	27.390962	143.916078	1.086716	0.193870	0.011469	0.007888
0.012288	2.205867E-5	0.010600	2.151213E-5	144.152242	142.788437	27.829826	145.475211	1.009178	0.194903	0.012288	0.007961
0.013107	2.227478E-5	0.011538	2.173673E-5	156.909459	144.320281	28.334035	147.075359	0.937326	0.196327	0.013107	0.008039
0.014746	2.251687E-5	0.012559	2.196534E-5	170.796548	145.883968	28.905203	148.720015	0.870744	0.198138	0.014746	0.008127
0.016384	2.279121E-5	0.013671	2.219858E-5	185.913239	147.482415	29.544983	150.412662	0.809048	0.200329	0.016384	0.008226
0.018022	2.310630E-5	0.014881	2.243698E-5	202.367228	149.118621	30.255114	152.156942	0.751885	0.202893	0.018022	0.008340
0.019661	2.341303E-5	0.016198	2.268129E-5	220.276555	150.795640	31.037458	153.956646	0.698924	0.205825	0.019661	0.008450
0.021299	2.374778E-5	0.017631	2.293205E-5	239.770481	152.516543	31.894001	155.815671	0.649853	0.209118	0.021299	0.008571
0.022938	2.403584E-5	0.019192	2.319010E-5	260.990020	154.284210	32.826780	157.737804	0.604383	0.212768	0.022938	0.008675
0.024576	2.430509E-5	0.020890	2.345618E-5	284.086072	156.101833	33.838043	159.727253	0.562250	0.216769	0.024576	0.008772
0.026214	2.457385E-5	0.022739	2.373097E-5	309.227042	157.972568	34.930222	161.788296	0.523202	0.221116	0.026214	0.008869
0.029491	2.487937E-5	0.024751	2.401544E-5	336.595911	159.899064	36.105682	163.924772	0.487008	0.225803	0.029491	0.008980
0.032768	2.520960E-5	0.026942	2.431038E-5	366.383327	161.884682	37.367122	166.141362	0.453463	0.230826	0.032768	0.009099
0.036045	2.559014E-5	0.029326	2.461680E-5	398.807564	163.932306	38.717342	168.442375	0.422365	0.236179	0.036045	0.009236
0.039322	2.596113E-5	0.031922	2.493563E-5	434.097605	166.045896	40.159708	170.833374	0.393537	0.241859	0.039322	0.009370
0.042598	2.631787E-5	0.034746	2.526785E-5	472.521967	168.227519	41.697141	173.318060	0.366794	0.247862	0.042598	0.009499
0.045875	2.657501E-5	0.037821	2.561466E-5	514.336063	170.481236	43.333224	175.902302	0.341999	0.254182	0.045875	0.009592
0.049152	2.687460E-5	0.041169	2.597722E-5	559.854826	172.810246	45.071818	178.591293	0.318996	0.260817	0.049152	0.009700
0.052429	2.723930E-5	0.044812	2.635665E-5	609.403903	175.217463	46.916633	181.389994	0.297652	0.267762	0.052429	0.009831
0.058982	2.771143E-5	0.048778	2.675432E-5	663.328096	177.707299	48.872281	184.305138	0.277849	0.275016	0.058982	0.010002
0.065536	2.832606E-5	0.053095	2.717169E-5	722.035850	180.282958	50.943404	187.342401	0.259464	0.282575	0.065536	0.010224
0.072090	2.898312E-5	0.057794	2.761017E-5	785.942732	182.947447	53.134432	190.507313	0.242393	0.290435	0.072090	0.010461
0.078643	2.956247E-5	0.062908	2.807129E-5	855.490269	185.705572	55.450966	193.807557	0.226546	0.298596	0.078643	0.010670
0.085197	3.019009E-5	0.068476	2.855681E-5	931.204503	188.560438	57.898454	197.249258	0.211822	0.307055	0.085197	0.010896
0.091750	3.064570E-5	0.074536	2.906849E-5	1013.609928	191.516665	60.483017	200.840305	0.198144	0.315811	0.091750	0.011061
0.098304	3.107494E-5	0.081132	2.960826E-5	1103.315351	194.578061	63.211041	204.588019	0.185430	0.324862	0.098304	0.011216
0.104858	3.165765E-5	0.088312	3.017820E-5	1200.957291	197.749090	66.089402	208.500627	0.173612	0.334208	0.104858	0.011426
0.117965	3.242935E-5	0.096128	3.078051E-5	1307.243245	201.034293	69.125565	212.586760	0.162622	0.343850	0.117965	0.011705
0.131072	3.344172E-5	0.104636	3.141763E-5	1422.942708	204.437916	72.327210	216.854991	0.152399	0.353786	0.131072	0.012070
0.144179	3.465991E-5	0.113895	3.209187E-5	1548.876840	207.964619	75.702567	221.314621	0.142887	0.364017	0.144179	0.012510
0.157286	3.492628E-5	0.123976	3.280629E-5	1685.946436	211.619427	79.260643	225.975732	0.134035	0.374543	0.157286	0.012606
0.170394	3.659174E-5	0.134946	3.356355E-5	1835.139999	215.408067	83.011504	230.849615	0.125794	0.385369	0.170394	0.013207
0.183501	4.031019E-5	0.146890	3.436717E-5	1997.556829	219.335499	86.965447	235.947134	0.118118	0.396495	0.183501	0.014549
0.399815	4.696153E-5	0.159890	3.522037E-5	2174.356349	223.406426	91.132852	241.279149	0.110966	0.407924	0.399815	0.016950
0.599722	5.559190E-5	0.174040	3.612695E-5	2366.774360	227.626953	95.525515	246.858570	0.104302	0.419658	0.599722	0.020064
0.799630	6.531727E-5	0.189441	3.709089E-5	2576.207617	232.004396	100.157203	252.700426	0.098090	0.431704	0.799630	0.023575
0.999537	7.426415E-5	0.206208	3.811684E-5	2804.234378	236.542660	105.040333	258.816348	0.092295	0.444065	0.999537	0.026804
1.199440	8.327694E-5	0.224456	3.920931E-5	3052.393895	241.249271	110.189543	265.222447	0.086890	0.456746	1.199440	0.030057
1.399350	9.242378E-5	0.244320	4.037359E-5	3322.518720	246.131035	115.620875	271.935054	0.081846	0.469753	1.399350	0.033358
1.599260	0.000102	0.265944	4.161551E-5	3616.571691	251.193894	121.350419	278.970064	0.077137	0.483095	1.599260	0.036722
1.799170	0.000111	0.289482	4.294107E-5	3936.621290	256.446051	127.396629	286.346780	0.072739	0.496778	1.799170	0.040160
1.999070	0.000121	0.315097	4.435674E-5	4285.032960	261.893954	133.778356	294.083477	0.068630	0.510811	1.999070	0.043673
2.198980	0.000131	0.342986	4.587052E-5	4664.270835	267.544390	140.515240	302.199493	0.064790	0.525203	2.198980	0.047178
2.398890	0.000142	0.373341	4.748998E-5	5077.004668	273.407477	147.630949	310.719400	0.061201	0.539967	2.398890	0.051183
2.598800	0.000150	0.406379	4.922389E-5	5526.353267	279.489285	155.148319	319.664295	0.057844	0.555114	2.598800	0.054062
2.798700	0.000161	0.442340	5.108203E-5	6015.435706	285.797847	163.091917	329.058327	0.054702	0.570655	2.798700	0.058161
2.998610	0.000172	0.481492	5.307547E-5	6547.730350	292.344677	171.491555	338.931798	0.051763	0.586607	2.998610	0.062017
3.198520	0.000181	0.524098	5.521493E-5	7127.295143	299.133975	180.373634	349.307576	0.049010	0.602986	3.198520	0.065326
3.398430	0.000193	0.570480	5.751404E-5	7757.971037	306.179056	189.772166	360.220889	0.046432	0.619808	3.398430	0.069590
3.598330	0.000203	0.620972	5.998690E-5	8444.605596	313.485552	199.719310	371.700140	0.044016	0.637093	3.598330	0.073195
3.798240	0.000214	0.675926	6.264854E-5	9191.883056	321.065414	210.253007	383.782916	0.041752	0.654860	3.798240	0.077121
3.998150	0.000225	0.735747	6.551663E-5	10005.373706	328.926790	221.412255	396.505006	0.039629	0.673135	3.998150	0.081149
4.198060	0.000233	0.800855	6.860967E-5	10890.840224	337.080429	233.240318	409.907625	0.037638	0.691943	4.198060	0.083952
4.397960	0.000246	0.871730	7.194927E-5	11854.756587	345.533218	245.780552	424.029815	0.035769	0.711308	4.397960	0.088631
4.597870	0.000256	0.948879	7.555858E-5	12903.785385	354.299458	259.086113	438.923365	0.034015	0.731263	4.597870	0.092265
4.797780	0.000265	1.032867	7.946378E-5	14045.925973	363.384059	273.207042	454.631787	0.032368	0.751841	4.797780	0.095583
4.997680	0.000276	1.124273	8.369249E-5	15288.954249	372.797703	288.200370	471.208638	0.030820	0.773074	4.997680	0.099735
5.197590	0.000286	1.223773	8.827733E-5	16641.850482	382.553209	304.132399	488.716148	0.029367	0.795007	5.197590	0.103204
5.397500	0.000298	1.332070	9.325321E-5	18114.792243	392.654718	321.066351	507.209355	0.028000	0.817681	5.397500	0.107659
5.597410	0.000310	1.449945	9.865967E-5	19717.852440	403.114107	339.076827	526.758083	0.026715	0.841144	5.597410	0.111748
5.797320	0.000319	1.578265	0.000105	21462.894202	413.937173	358.240921	547.430855	0.025506	0.865448	5.797320	0.115137
5.997220	0.000331	1.717958	0.000111	23362.239378	425.133508	378.645794	569.307594	0.024369	0.890651	5.997220	0.119495
6.197130	0.000341	1.869976	0.000118	25429.850787	436.707170	400.381730	592.468297	0.023298	0.916820	6.197130	0.122927
6.397040	0.000351	2.035476	0.000126	27680.343474	448.664167	423.548783	617.003328	0.022290	0.944022	6.397040	0.126609
6.596940	0.000362	2.215627	0.000134	30129.996461	461.010062	448.258073	643.012890	0.021341	0.972339	6.596940	0.130761
6.796850	0.000371	2.411701	0.000143	32796.798753	473.741205	474.620407	670.593215	0.020447	1.001856	6.796850	0.133996
6.996760	0.000385	2.625127	0.000153	35699.081849	486.863285	502.768770	699.865912	0.019605	1.032669	6.996760	0.138949
7.196670	0.000398	2.857450	0.000164	38858.597343	500.369428	532.838305	730.948851	0.018810	1.064890	7.196670	0.143530
7.396570	0.000404	3.110369	0.000176	42297.571873	514.253294	564.976718	763.973260	0.018062	1.098635	7.396570	0.145918
7.596480	0.000420	3.385611	0.000189	46040.528489	528.512013	599.357082	799.095651	0.017356	1.134046	7.596480	0.151459
7.796390	0.000430	3.685224	0.000204	50115.758622	543.121535	636.144629	836.457406	0.016691	1.171275	7.796390	0.155299
7.996300	0.000440	4.011373	0.000220	54550.782461	558.070978	675.539898	876.240476	0.016063	1.210491	7.996300	0.158942
8.196200	0.000449	4.366402	0.000238	59378.734341	573.329883	717.746901	918.622756	0.015471	1.251892	8.196200	0.161967
8.396110	0.000458	4.752770	0.000257	64633.240238	588.872356	763.000938	963.815897	0.014912	1.295698	8.396110	0.165387
