MicroRheology Analysis v9.2.8 
08/16/18 4:04:54 PM

Correlation Mode:	Cross
Geometry:	Transmission
Multi-Tau Duration (s):	30
Echo Duration (s):	30
Wavelength (nm):	685.0
Temperature (°C):	25.00
Cuvette Thickness (mm):	10.00
Absorption Length (mm):	Inf
Solvent:	Water
Solvent Refractive Index:	1.329
Particle Radius (nm):	465.0
Mean Count Rate (kHz):	173.8
l* (microns):	988.46



Lag Time (s)	Mean Square Displacement (micron^2)	Fit Lag Time (s)	Mean Square Displacement Fit (micron^2)	Frequency(rad/s)	G1 (Pa)	G2 (Pa)	G* (Pa)	Complex Viscosity (Pa s)	Loss Tangent (-)	Time (s)	Creep Compliance (1/Pa)

2.561250E-5	6.871455E-6	2.561276E-5	6.528242E-6	0.125056	3.806167	5.302692	6.527285	52.194790	1.393184	2.561250E-5	0.002439
2.881250E-5	7.049970E-6	2.801710E-5	6.846167E-6	0.136797	3.600214	5.850628	6.869599	50.217573	1.625078	2.881250E-5	0.002502
3.201250E-5	7.239581E-6	3.064720E-5	7.154430E-6	0.149637	3.413853	6.403386	7.256566	48.494359	1.875706	3.201250E-5	0.002569
3.521250E-5	7.440379E-6	3.352396E-5	7.452961E-6	0.163687	3.252415	6.970838	7.692255	46.993816	2.143281	3.521250E-5	0.002640
3.841250E-5	7.575217E-6	3.667147E-5	7.742047E-6	0.179050	3.120890	7.562517	8.181175	45.692026	2.423192	3.841250E-5	0.002688
4.161250E-5	7.835879E-6	4.011357E-5	8.021971E-6	0.195860	3.023978	8.186874	8.727505	44.560020	2.707319	4.161250E-5	0.002781
4.481250E-5	8.159146E-6	4.387936E-5	8.293441E-6	0.214245	2.966785	8.851743	9.335694	43.574865	2.983614	4.481250E-5	0.002896
4.801250E-5	8.474719E-6	4.799876E-5	8.557164E-6	0.234358	2.954844	9.563964	10.010020	42.712559	3.236707	4.801250E-5	0.003008
5.121250E-5	8.723583E-6	5.250486E-5	8.813993E-6	0.256358	2.994429	10.329505	10.754780	41.952195	3.449574	5.121250E-5	0.003096
5.761250E-5	8.990918E-6	5.743338E-5	9.064855E-6	0.280423	3.092652	11.153495	11.574323	41.274561	3.606450	5.761250E-5	0.003191
6.401250E-5	9.281481E-6	6.282485E-5	9.310814E-6	0.306751	3.257390	12.039444	12.472321	40.659396	3.696041	6.401250E-5	0.003294
7.041250E-5	9.563833E-6	6.872251E-5	9.552923E-6	0.335546	3.497483	12.989980	13.452582	40.091600	3.714094	7.041250E-5	0.003394
7.681250E-5	9.794654E-6	7.517338E-5	9.792254E-6	0.367044	3.822557	14.006283	14.518537	39.555334	3.664113	7.681250E-5	0.003476
8.321250E-5	9.995670E-6	8.223131E-5	1.002997E-5	0.401504	4.242726	15.087290	15.672494	39.034484	3.556037	8.321250E-5	0.003547
8.961250E-5	1.018606E-5	8.994954E-5	1.026705E-5	0.439191	4.768776	16.230921	16.916974	38.518523	3.403582	8.961250E-5	0.003615
9.601250E-5	1.043826E-5	9.839421E-5	1.050470E-5	0.480424	5.411403	17.432177	18.252783	37.993064	3.221379	9.601250E-5	0.003704
0.000102	1.072372E-5	0.000108	1.074391E-5	0.525521	6.181340	18.684670	19.680596	37.449677	3.022754	0.000102	0.003806
0.000115	1.103925E-5	0.000118	1.098570E-5	0.574857	7.088592	19.979162	21.199412	36.877700	2.818495	0.000115	0.003918
0.000128	1.140987E-5	0.000129	1.123106E-5	0.628819	8.142271	21.304591	22.807502	36.270383	2.616542	0.000128	0.004049
0.000141	1.182088E-5	0.000141	1.148092E-5	0.687844	9.350197	22.647804	24.502024	35.621478	2.422174	0.000141	0.004195
0.000154	1.215657E-5	0.000154	1.173623E-5	0.752416	10.718279	23.993492	26.278682	34.925745	2.238558	0.000154	0.004314
0.000166	1.244847E-5	0.000169	1.199778E-5	0.823054	12.250043	25.324573	28.131789	34.179756	2.067305	0.000166	0.004418
0.000179	1.265941E-5	0.000184	1.226638E-5	0.900323	13.946204	26.622546	30.054227	33.381614	1.908946	0.000179	0.004493
0.000192	1.286066E-5	0.000202	1.254276E-5	0.984829	15.805222	27.868891	32.038728	32.532263	1.763271	0.000192	0.004564
0.000205	1.305553E-5	0.000221	1.282766E-5	1.077289	17.821853	29.043659	34.075689	31.630958	1.629666	0.000205	0.004633
0.000230	1.335452E-5	0.000241	1.312161E-5	1.178424	19.987611	30.127675	36.154963	30.680772	1.507317	0.000230	0.004739
0.000256	1.364687E-5	0.000264	1.342529E-5	1.289045	22.290982	31.102613	38.265656	29.685266	1.395300	0.000256	0.004843
0.000282	1.398064E-5	0.000289	1.373911E-5	1.410043	24.717919	31.951883	40.396761	28.649305	1.292661	0.000282	0.004961
0.000307	1.426336E-5	0.000316	1.406356E-5	1.542426	27.250672	32.660008	42.535576	27.577060	1.198503	0.000307	0.005062
0.000333	1.452511E-5	0.000346	1.439904E-5	1.687211	29.869971	33.215094	44.670546	26.475962	1.111990	0.000333	0.005155
0.000358	1.475224E-5	0.000378	1.474582E-5	1.845604	32.554273	33.607359	46.789265	25.351734	1.032349	0.000358	0.005235
0.000384	1.501549E-5	0.000413	1.510415E-5	2.018854	35.281105	33.830783	48.880244	24.211876	0.958892	0.000384	0.005329
0.000410	1.527891E-5	0.000452	1.547424E-5	2.208378	38.027169	33.882411	50.932145	23.063150	0.891005	0.000410	0.005422
0.000461	1.559512E-5	0.000495	1.585624E-5	2.415690	40.769287	33.762958	52.934602	21.912830	0.828147	0.000461	0.005534
0.000512	1.594476E-5	0.000541	1.625009E-5	2.642468	43.484701	33.476388	54.877935	20.767679	0.769843	0.000512	0.005659
0.000563	1.627758E-5	0.000592	1.665586E-5	2.890515	46.152481	33.030126	56.754213	19.634638	0.715674	0.000563	0.005777
0.000614	1.655214E-5	0.000648	1.707328E-5	3.161881	48.752514	32.434049	58.555744	18.519273	0.665280	0.000614	0.005874
0.000666	1.682099E-5	0.000708	1.750229E-5	3.458668	51.268114	31.701201	60.277571	17.427971	0.618341	0.000666	0.005969
0.000717	1.706231E-5	0.000775	1.794255E-5	3.783390	53.683733	30.845934	61.914577	16.364843	0.574586	0.000717	0.006055
0.000768	1.733936E-5	0.000848	1.839366E-5	4.138524	55.987578	29.885041	63.464357	15.335024	0.533780	0.000768	0.006153
0.000819	1.767387E-5	0.000927	1.885519E-5	4.527015	58.170414	28.835796	64.925343	14.341755	0.495712	0.000819	0.006272
0.000922	1.805992E-5	0.001014	1.932667E-5	4.951978	60.225909	27.716377	66.297494	13.388084	0.460207	0.000922	0.006409
0.001024	1.846852E-5	0.001109	1.980747E-5	5.416849	62.150514	26.545073	67.582004	12.476257	0.427109	0.001024	0.006554
0.001126	1.889221E-5	0.001214	2.029685E-5	5.925379	63.943118	25.340007	68.781090	11.607880	0.396290	0.001126	0.006704
0.001229	1.926452E-5	0.001327	2.079407E-5	6.481594	65.605646	24.118707	69.898589	10.784166	0.367632	0.001229	0.006837
0.001331	1.958961E-5	0.001452	2.129826E-5	7.090121	67.141323	22.897683	70.938432	10.005250	0.341037	0.001331	0.006952
0.001434	1.985384E-5	0.001588	2.180845E-5	7.755635	68.556166	21.692586	71.906302	9.271491	0.316421	0.001434	0.007046
0.001536	2.015704E-5	0.001738	2.232380E-5	8.483716	69.857237	20.517364	72.807938	8.582081	0.293704	0.001536	0.007153
0.001638	2.054093E-5	0.001901	2.284311E-5	9.280167	71.052749	19.384928	73.649634	7.936241	0.272824	0.001638	0.007290
0.001843	2.105075E-5	0.002079	2.336541E-5	10.151294	72.152149	18.306630	74.438332	7.332891	0.253723	0.001843	0.007471
0.002048	2.168393E-5	0.002274	2.388949E-5	11.104208	73.165519	17.292202	75.181204	6.770515	0.236344	0.002048	0.007695
0.002253	2.235938E-5	0.002488	2.441410E-5	12.146715	74.102956	16.350089	75.885265	6.247390	0.220640	0.002253	0.007935
0.002458	2.297985E-5	0.002721	2.493817E-5	13.287004	74.974836	15.487491	76.557746	5.761852	0.206569	0.002458	0.008155
0.002662	2.360147E-5	0.002977	2.546042E-5	14.534165	75.791777	14.710134	77.206098	5.312042	0.194086	0.002662	0.008376
0.002867	2.414718E-5	0.003256	2.597958E-5	15.898607	76.563678	14.022601	77.837203	4.895850	0.183150	0.002867	0.008569
0.003072	2.477976E-5	0.003562	2.649450E-5	17.391001	77.300398	13.428551	78.458126	4.511421	0.173719	0.003072	0.008794
0.003277	2.558186E-5	0.003896	2.700402E-5	19.023659	78.011023	12.930632	79.075413	4.156688	0.165754	0.003277	0.009079
0.003686	2.655666E-5	0.004262	2.750692E-5	20.809466	78.704271	12.530758	79.695560	3.829774	0.159213	0.003686	0.009424
0.004096	2.766602E-5	0.004662	2.800208E-5	22.762993	79.388084	12.230098	80.324611	3.528737	0.154055	0.004096	0.009818
0.004506	2.885751E-5	0.005100	2.848863E-5	24.899757	80.069914	12.029272	80.968478	3.251778	0.150235	0.004506	0.010241
0.004915	2.997724E-5	0.005578	2.896545E-5	27.237238	80.756424	11.928389	81.632631	2.997097	0.147708	0.004915	0.010638
0.005325	3.110005E-5	0.006102	2.943178E-5	29.794125	81.453786	11.927199	82.322399	2.763041	0.146429	0.005325	0.011037
0.005734	3.211297E-5	0.006675	2.988680E-5	32.591489	82.167130	12.025072	83.042397	2.547978	0.146349	0.005734	0.011396
0.006144	3.320178E-5	0.007302	3.033001E-5	35.650543	82.901646	12.221194	83.797616	2.350528	0.147418	0.006144	0.011783
0.006554	3.441913E-5	0.007987	3.076075E-5	38.997440	83.661509	12.514506	84.592322	2.169176	0.149585	0.006554	0.012215
0.007373	3.570443E-5	0.008737	3.117878E-5	42.658633	84.450454	12.903760	85.430593	2.002657	0.152797	0.007373	0.012671
0.008192	3.696020E-5	0.009557	3.158386E-5	46.663229	85.271824	13.387570	86.316342	1.849772	0.156999	0.008192	0.013116
0.009011	3.800169E-5	0.010454	3.197587E-5	51.043325	86.128706	13.964507	87.253433	1.709399	0.162135	0.009011	0.013486
0.009830	3.855149E-5	0.011435	3.235502E-5	55.834845	87.023784	14.633083	88.245488	1.580473	0.168150	0.009830	0.013681
0.010650	3.870599E-5	0.012509	3.272162E-5	61.076704	87.959265	15.391622	89.295769	1.462027	0.174986	0.010650	0.013736
0.011469	3.851556E-5	0.013683	3.307605E-5	66.810065	88.937433	16.238438	90.407709	1.353205	0.182583	0.011469	0.013668
0.012288	3.757563E-5	0.014968	3.341903E-5	73.081903	89.960220	17.171788	91.584450	1.253175	0.190882	0.012288	0.013335
0.013107	3.565534E-5	0.016373	3.375135E-5	79.942277	91.029646	18.189905	92.829247	1.161203	0.199824	0.013107	0.012653
0.014746	3.283399E-5	0.017910	3.407408E-5	87.447411	92.147361	19.290843	94.144957	1.076589	0.209348	0.014746	0.011652
0.016384	2.969298E-5	0.019591	3.438836E-5	95.656337	93.315222	20.472559	95.534582	0.998727	0.219391	0.016384	0.010537
0.018022	2.722199E-5	0.021430	3.469560E-5	104.635179	94.535356	21.733178	97.001364	0.927044	0.229895	0.018022	0.009661
0.019661	2.637492E-5	0.023442	3.499740E-5	114.458457	95.809485	23.070531	98.547992	0.860994	0.240796	0.019661	0.009360
0.021299	2.738408E-5	0.025643	3.529553E-5	125.203583	97.139617	24.482235	100.177268	0.800115	0.252031	0.021299	0.009718
0.022938	2.979773E-5	0.028050	3.559187E-5	136.956488	98.528250	25.966085	101.892363	0.743976	0.263539	0.022938	0.010575
0.024576	3.375670E-5	0.030683	3.588849E-5	149.814555	99.977312	27.519409	103.695616	0.692160	0.275257	0.024576	0.011980
0.026214	3.760880E-5	0.033564	3.618784E-5	163.877292	101.489764	29.139627	105.590199	0.644325	0.287119	0.026214	0.013347
0.029491	3.905702E-5	0.036714	3.649225E-5	179.261493	103.068143	30.823923	107.578606	0.600121	0.299064	0.029491	0.013861
0.032768	3.707504E-5	0.040161	3.680442E-5	196.088957	104.715750	32.569413	109.663827	0.559255	0.311027	0.032768	0.013157
0.036045	3.346305E-5	0.043931	3.712716E-5	214.498453	106.435247	34.372640	111.847844	0.521439	0.322944	0.036045	0.011875
0.039322	3.127870E-5	0.048055	3.746352E-5	234.632278	108.230638	36.230350	114.133735	0.486437	0.334751	0.039322	0.011100
0.042598	3.337374E-5	0.052566	3.781668E-5	256.658506	110.105461	38.139011	116.523803	0.454003	0.346386	0.042598	0.011844
0.045875	3.789936E-5	0.057501	3.819008E-5	280.753956	112.063299	40.094489	119.019961	0.423930	0.357784	0.045875	0.013450
0.049152	3.935584E-5	0.062899	3.858727E-5	307.109203	114.108347	42.092595	121.624428	0.396030	0.368883	0.049152	0.013967
0.052429	3.885650E-5	0.068803	3.901215E-5	335.938133	116.244979	44.129011	124.339313	0.370126	0.379621	0.052429	0.013789
0.058982	3.846408E-5	0.075262	3.946869E-5	367.475835	118.477305	46.198862	127.166059	0.346053	0.389938	0.058982	0.013650
0.065536	3.683567E-5	0.082327	3.996134E-5	401.973996	120.809384	48.296761	130.105666	0.323667	0.399777	0.065536	0.013072
0.072090	3.743689E-5	0.090056	4.049468E-5	439.705212	123.246351	50.417621	133.160053	0.302839	0.409080	0.072090	0.013286
0.078643	4.032784E-5	0.098510	4.107352E-5	480.984536	125.792201	52.555573	136.329623	0.283439	0.417797	0.078643	0.014312
0.085197	3.940576E-5	0.107757	4.170316E-5	526.139844	128.450798	54.704132	139.614288	0.265356	0.425876	0.085197	0.013984
0.091750	3.957172E-5	0.117873	4.238928E-5	575.527191	131.226989	56.857188	143.014903	0.248494	0.433274	0.091750	0.014043
0.098304	4.054329E-5	0.128939	4.313786E-5	629.557473	134.123753	59.007567	146.530114	0.232751	0.439949	0.098304	0.014388
0.104858	4.004840E-5	0.141041	4.395530E-5	688.650183	137.145478	61.148567	150.160013	0.218050	0.445866	0.104858	0.014212
0.117965	4.086105E-5	0.154283	4.484890E-5	753.297438	140.294973	63.272825	153.902988	0.204306	0.450999	0.117965	0.014501
0.131072	4.287772E-5	0.168766	4.582593E-5	824.015302	143.574725	65.372760	157.757090	0.191449	0.455322	0.131072	0.015217
0.144179	4.360525E-5	0.184609	4.689489E-5	901.370500	146.987021	67.440945	161.720331	0.179416	0.458822	0.144179	0.015475
0.157286	4.301287E-5	0.201940	4.806460E-5	985.992210	150.532815	69.469661	165.789512	0.168145	0.461492	0.157286	0.015264
0.170394	4.485097E-5	0.220896	4.934485E-5	1078.552139	154.212680	71.451510	169.961375	0.157583	0.463331	0.170394	0.015917
0.183501	5.200125E-5	0.241632	5.074634E-5	1179.793084	158.026849	73.379667	174.232777	0.147681	0.464349	0.183501	0.018454
0.399815	6.450380E-5	0.264313	5.228070E-5	1290.541074	161.974531	75.247711	178.600019	0.138392	0.464565	0.399815	0.022891
0.599723	7.839296E-5	0.289129	5.396117E-5	1411.696024	166.053475	77.049642	183.058472	0.129673	0.464005	0.599723	0.027820
0.799630	9.611289E-5	0.316267	5.580111E-5	1544.223819	170.260496	78.780426	187.603284	0.121487	0.462705	0.799630	0.034109
0.999538	0.000118	0.345959	5.781673E-5	1689.177577	174.593066	80.436938	192.231214	0.113802	0.460711	0.999538	0.042033
1.199445	0.000130	0.378434	6.002447E-5	1847.765217	179.045437	82.016490	196.936470	0.106581	0.458076	1.199445	0.046059
1.399353	0.000143	0.413960	6.244353E-5	2021.217398	183.613395	83.519300	201.716019	0.099799	0.454865	1.399353	0.050642
1.599261	0.000152	0.452821	6.509432E-5	2210.971508	188.290019	84.946833	206.564992	0.093427	0.451149	1.599261	0.054058
1.799168	0.000162	0.495331	6.799966E-5	2418.509535	193.069598	86.303915	211.481052	0.087443	0.447009	1.799168	0.057522
1.999076	0.000170	0.541828	7.118439E-5	2645.529610	197.945865	87.598066	216.462437	0.081822	0.442535	1.999076	0.060278
2.198983	0.000181	0.592694	7.467643E-5	2893.878611	202.911994	88.839981	221.508057	0.076544	0.437825	2.198983	0.064217
2.398891	0.000193	0.648329	7.850544E-5	3165.552511	207.961110	90.044089	226.618096	0.071589	0.432985	2.398891	0.068669
2.598798	0.000205	0.709198	8.270576E-5	3462.720415	213.087052	91.229111	231.794828	0.066940	0.428131	2.598798	0.072643
2.798706	0.000217	0.775768	8.731221E-5	3787.769226	218.285456	92.418696	237.043784	0.062581	0.423385	2.798706	0.077024
2.998614	0.000231	0.848591	9.236569E-5	4143.386329	223.550227	93.640545	242.370080	0.058496	0.418879	2.998614	0.081856
3.198521	0.000247	0.928256	9.790975E-5	4532.312689	228.880158	94.929315	247.785596	0.054671	0.414756	3.198521	0.087827
3.398429	0.000263	1.015404	0.000104	4957.834006	234.271531	96.324003	253.301133	0.051091	0.411164	3.398429	0.093269
3.598336	0.000278	1.110713	0.000111	5423.213092	239.725403	97.871490	258.934543	0.047746	0.408265	3.598336	0.098591
3.798244	0.000289	1.214987	0.000118	5932.309987	245.242720	99.624869	264.705697	0.044621	0.406230	3.798244	0.102533
3.998151	0.000302	1.329052	0.000126	6489.190968	250.826721	101.645326	270.639643	0.041706	0.405241	3.998151	0.107024
4.198059	0.000311	1.453818	0.000135	7098.403621	256.479896	104.001618	276.763932	0.038990	0.405496	4.198059	0.110226
4.397967	0.000320	1.590283	0.000144	7764.709976	262.207772	106.772596	283.113587	0.036462	0.407206	4.397967	0.113529
4.597874	0.000328	1.739562	0.000155	8493.626784	268.013627	110.046375	289.726611	0.034111	0.410600	4.597874	0.116370
4.797782	0.000336	1.902873	0.000166	9290.959938	273.900089	113.922496	296.647255	0.031929	0.415927	4.797782	0.119222
4.997689	0.000354	2.081494	0.000179	10163.200039	279.865633	118.512371	303.924258	0.029904	0.423462	4.997689	0.125730
5.197597	0.000358	2.276916	0.000192	11117.343656	285.901797	123.939813	311.610196	0.028029	0.433505	5.197597	0.127179
5.397504	0.000381	2.490636	0.000207	12160.818532	291.996189	130.346191	319.768517	0.026295	0.446397	5.397504	0.135065
5.597412	0.000396	2.724471	0.000223	13302.581301	298.117035	137.885785	328.460433	0.024691	0.462522	5.597412	0.140514
5.797320	0.000409	2.980216	0.000241	14551.273806	304.220599	146.732153	337.758046	0.023212	0.482322	5.797320	0.145012
5.997227	0.000424	3.259970	0.000259	15917.268256	310.236916	157.077208	347.735810	0.021846	0.506314	5.997227	0.150436
6.197135	0.000438	3.566045	0.000279	17411.477078	316.065821	169.131476	358.473233	0.020588	0.535115	6.197135	0.155404
6.397042	0.000440	3.900795	0.000301	19045.856123	321.569690	183.127062	370.057545	0.019430	0.569479	6.397042	0.156275
6.596950	0.000459	4.266980	0.000323	20833.869697	326.560060	199.314202	382.580219	0.018363	0.610345	6.596950	0.163067
6.796857	0.000464	4.667555	0.000347	22789.758718	330.791937	217.961584	396.144617	0.017383	0.658908	6.796857	0.164575
6.996765	0.000479	5.105700	0.000372	24929.221000	333.953883	239.356551	410.873161	0.016482	0.716735	6.996765	0.169829
7.196673	0.000479	5.585020	0.000398	27269.157240	335.669193	263.820459	426.936812	0.015656	0.785954	7.196673	0.170027
7.396580	0.000490	6.109238	0.000425	29829.409167	335.483595	291.708596	444.570745	0.014904	0.869517	7.396580	0.174049
7.596488	0.000504	6.682825	0.000452	32629.409829	332.893362	323.466766	464.164561	0.014225	0.971683	7.596488	0.178959
7.796395	0.000517	7.310117	0.000479	35692.489647	327.326566	359.693767	486.335570	0.013626	1.098884	7.796395	0.183558
