MicroRheology Analysis v9.2.8
09/01/18 9:31:06 PM

Correlation Mode:	Cross
Geometry:	Transmission
Multi-Tau Duration (s):	120
Echo Duration (s):	60
Wavelength (nm):	685.0
Temperature (°C):	25.00
Cuvette Thickness (mm):	10.00
Absorption Length (mm):	Inf
Solvent:	Water
Solvent Refractive Index:	1.329
Particle Radius (nm):	465.0
Mean Count Rate (kHz):	164.3
l* (microns):	938.03



Lag Time (s)	Mean Square Displacement (micron^2)	Fit Lag Time (s)	Mean Square Displacement Fit (micron^2)	Frequency(rad/s)	G1 (Pa)	G2 (Pa)	G* (Pa)	Complex Viscosity (Pa s)	Loss Tangent (-)	Time (s)	Creep Compliance (1/Pa)

6.012500E-6	1.840824E-6	6.012514E-6	1.859597E-6	0.102088	-0.785201	4.321412	4.392169	43.023479	-5.503571	6.012500E-6	0.000653
6.412500E-6	1.974840E-6	6.550197E-6	1.975208E-6	0.111217	-0.808850	4.782400	4.850318	43.611438	-5.912591	6.412500E-6	0.000701
7.212500E-6	2.119361E-6	7.135978E-6	2.094372E-6	0.121161	-0.819755	5.291386	5.354509	44.193302	-6.454834	7.212500E-6	0.000752
8.012500E-6	2.274438E-6	7.774075E-6	2.217032E-6	0.131998	-0.814516	5.851778	5.908193	44.759856	-7.184366	8.012500E-6	0.000807
8.812500E-6	2.498947E-6	8.469261E-6	2.343168E-6	0.143802	-0.789297	6.467149	6.515136	45.306413	-8.193560	8.812500E-6	0.000887
9.612500E-6	2.611323E-6	9.226766E-6	2.472762E-6	0.156660	-0.739744	7.140974	7.179187	45.826464	-9.653307	9.612500E-6	0.000927
1.041250E-5	2.719065E-6	1.005171E-5	2.605703E-6	0.170668	-0.660977	7.876798	7.904482	46.314984	-11.916894	1.041250E-5	0.000965
1.121250E-5	2.814732E-6	1.095077E-5	2.742050E-6	0.185932	-0.547567	8.677421	8.694680	46.762626	-15.847243	1.121250E-5	0.000999
1.201250E-5	2.938284E-6	1.192998E-5	2.881684E-6	0.202559	-0.393617	9.545741	9.553853	47.165866	-24.251323	1.201250E-5	0.001043
1.281250E-5	3.029295E-6	1.299669E-5	3.024593E-6	0.220672	-0.192673	10.484186	10.485956	47.518363	-54.414356	1.281250E-5	0.001075
1.441250E-5	3.142309E-6	1.415900E-5	3.170776E-6	0.240405	0.062193	11.494656	11.494824	47.814408	184.823072	1.441250E-5	0.001115
1.601250E-5	3.233497E-6	1.542519E-5	3.320165E-6	0.261903	0.378334	12.578440	12.584128	48.048756	33.246945	1.601250E-5	0.001148
1.761250E-5	3.372613E-6	1.680463E-5	3.472734E-6	0.285323	0.763526	13.736410	13.757614	48.217623	17.990753	1.761250E-5	0.001197
1.921250E-5	3.546206E-6	1.830745E-5	3.628451E-6	0.310842	1.225786	14.968125	15.018233	48.314716	12.211040	1.921250E-5	0.001258
2.081250E-5	3.715314E-6	1.994464E-5	3.787274E-6	0.338638	1.773360	16.272860	16.369203	48.338409	9.176286	2.081250E-5	0.001319
2.241250E-5	3.887113E-6	2.172819E-5	3.949167E-6	0.368919	2.414690	17.648856	17.813277	48.285051	7.308953	2.241250E-5	0.001379
2.401250E-5	4.041377E-6	2.367123E-5	4.114098E-6	0.401910	3.158183	19.093319	19.352750	48.151961	6.045667	2.401250E-5	0.001434
2.561250E-5	4.253949E-6	2.578801E-5	4.282029E-6	0.437852	4.012105	20.602451	20.989473	47.937375	5.135073	2.561250E-5	0.001510
2.881250E-5	4.474814E-6	2.809402E-5	4.452918E-6	0.477009	4.984341	22.171160	22.724524	47.639650	4.448162	2.881250E-5	0.001588
3.201250E-5	4.690056E-6	3.060643E-5	4.626741E-6	0.519659	6.082710	23.794257	24.559439	47.260654	3.911785	3.201250E-5	0.001664
3.521250E-5	4.884090E-6	3.334347E-5	4.803441E-6	0.566135	7.314086	25.464145	26.493745	46.797545	3.481521	3.521250E-5	0.001733
3.841250E-5	5.018790E-6	3.632478E-5	4.982946E-6	0.616758	8.684990	27.173654	28.527820	46.254510	3.128806	3.841250E-5	0.001781
4.161250E-5	5.169973E-6	3.957340E-5	5.165275E-6	0.671918	10.200761	28.913368	30.660045	45.630657	2.834432	4.161250E-5	0.001835
4.481250E-5	5.367035E-6	4.311244E-5	5.350332E-6	0.732002	11.866046	30.674153	32.889310	44.930648	2.585036	4.481250E-5	0.001905
4.801250E-5	5.585914E-6	4.696712E-5	5.538028E-6	0.797466	13.683999	32.445032	35.212667	44.155685	2.371020	4.801250E-5	0.001982
5.121250E-5	5.799479E-6	5.116713E-5	5.728369E-6	0.868771	15.657180	34.215797	37.628022	43.311798	2.185310	5.121250E-5	0.002058
5.761250E-5	6.045996E-6	5.574338E-5	5.921291E-6	0.946467	17.786363	35.974435	40.131218	42.401074	2.022585	5.761250E-5	0.002146
6.401250E-5	6.314080E-6	6.072798E-5	6.116661E-6	1.031108	20.070687	37.708937	42.717636	41.428873	1.878806	6.401250E-5	0.002241
7.041250E-5	6.545239E-6	6.615837E-5	6.314442E-6	1.123301	22.508941	39.408261	45.383515	40.401933	1.750783	7.041250E-5	0.002323
7.681250E-5	6.787582E-6	7.207551E-5	6.514590E-6	1.223765	25.097454	41.059655	48.122526	39.323335	1.636009	7.681250E-5	0.002409
8.321250E-5	7.018699E-6	7.851968E-5	6.716916E-6	1.333206	27.831246	42.651517	50.928677	38.200153	1.532505	8.321250E-5	0.002491
8.961250E-5	7.165591E-6	8.554179E-5	6.921443E-6	1.452427	30.704272	44.172608	53.795647	37.038451	1.438647	8.961250E-5	0.002543
9.601250E-5	7.348816E-6	9.319185E-5	7.128023E-6	1.582310	33.708989	45.612030	56.716428	35.844072	1.353112	9.601250E-5	0.002608
0.000102	7.585093E-6	0.000102	7.336545E-6	1.723804	36.836859	46.959875	59.684035	34.623452	1.274807	0.000102	0.002692
0.000115	7.809793E-6	0.000111	7.546885E-6	1.877963	40.077361	48.206356	62.690091	33.381967	1.202833	0.000115	0.002772
0.000128	8.077031E-6	0.000120	7.758983E-6	2.045873	43.420311	49.344021	65.727892	32.127061	1.136427	0.000128	0.002866
0.000141	8.351059E-6	0.000131	7.972675E-6	2.228828	46.853658	50.365156	68.788910	30.863259	1.074946	0.000141	0.002964
0.000154	8.563480E-6	0.000143	8.187832E-6	2.428136	50.365135	51.264147	71.865566	29.597011	1.017850	0.000154	0.003039
0.000166	8.766152E-6	0.000156	8.404347E-6	2.645285	53.941496	52.036050	74.949553	28.333257	0.964676	0.000166	0.003111
0.000179	8.935414E-6	0.000170	8.622082E-6	2.881846	57.569097	52.677523	78.032829	27.077377	0.915031	0.000179	0.003171
0.000192	9.111779E-6	0.000185	8.840825E-6	3.139534	61.235390	53.187079	81.108806	25.834663	0.868568	0.000192	0.003234
0.000205	9.304587E-6	0.000201	9.060532E-6	3.420335	64.925737	53.563194	84.168682	24.608313	0.824992	0.000205	0.003302
0.000230	9.552743E-6	0.000219	9.280968E-6	3.726185	68.627180	53.807188	87.206097	23.403588	0.784051	0.000230	0.003390
0.000256	9.805181E-6	0.000239	9.502002E-6	4.059392	72.326853	53.920789	90.214329	22.223608	0.745515	0.000256	0.003480
0.000282	1.004164E-5	0.000260	9.723480E-6	4.422401	76.012218	53.907122	93.187097	21.071607	0.709190	0.000282	0.003564
0.000307	1.023320E-5	0.000284	9.945257E-6	4.817877	79.671059	53.770359	96.118308	19.950344	0.674905	0.000307	0.003632
0.000333	1.041779E-5	0.000309	1.016713E-5	5.248678	83.293073	53.516111	99.003586	18.862575	0.642504	0.000333	0.003697
0.000358	1.056171E-5	0.000337	1.038894E-5	5.718097	86.866740	53.149986	101.836887	17.809575	0.611857	0.000358	0.003748
0.000384	1.074212E-5	0.000367	1.061050E-5	6.229369	90.384193	52.679787	104.615784	16.793962	0.582843	0.000384	0.003812
0.000410	1.094027E-5	0.000400	1.083168E-5	6.786542	93.835561	52.112339	107.335029	15.815865	0.555358	0.000410	0.003883
0.000461	1.115511E-5	0.000435	1.105230E-5	7.393385	97.214306	51.456680	109.992778	14.877188	0.529312	0.000461	0.003959
0.000512	1.139209E-5	0.000474	1.127221E-5	8.054561	100.513655	50.721092	112.586073	13.977928	0.504619	0.000512	0.004043
0.000563	1.163171E-5	0.000517	1.149122E-5	8.774773	103.729285	49.914947	115.114145	13.118761	0.481204	0.000563	0.004128
0.000614	1.181869E-5	0.000563	1.170917E-5	9.559556	106.855810	49.047067	117.574567	12.299167	0.459002	0.000614	0.004194
0.000666	1.199646E-5	0.000613	1.192595E-5	10.414289	109.891302	48.127385	119.968094	11.519566	0.437954	0.000666	0.004257
0.000717	1.214907E-5	0.000668	1.214135E-5	11.345646	112.833085	47.164770	122.293992	10.778936	0.418005	0.000717	0.004311
0.000768	1.230519E-5	0.000728	1.235529E-5	12.360221	115.680247	46.168791	124.553109	10.076932	0.399107	0.000768	0.004367
0.000819	1.248927E-5	0.000793	1.256760E-5	13.465569	118.432183	45.148468	126.746069	9.412604	0.381218	0.000819	0.004432
0.000922	1.270933E-5	0.000864	1.277814E-5	14.669603	121.090136	44.112836	128.874991	8.785172	0.364298	0.000922	0.004510
0.001024	1.294462E-5	0.000941	1.298685E-5	15.981452	123.655358	43.070253	130.941568	8.193346	0.348309	0.001024	0.004594
0.001126	1.317712E-5	0.001025	1.319358E-5	17.410633	126.130080	42.029041	132.948251	7.636038	0.333220	0.001126	0.004676
0.001229	1.338217E-5	0.001117	1.339827E-5	18.967710	128.516898	40.997019	134.897549	7.111958	0.319001	0.001229	0.004749
0.001331	1.356490E-5	0.001217	1.360081E-5	20.663973	130.819158	39.981685	136.792497	6.619854	0.305626	0.001331	0.004814
0.001434	1.371556E-5	0.001326	1.380116E-5	22.511842	133.040720	38.990020	138.636412	6.158377	0.293068	0.001434	0.004867
0.001536	1.386945E-5	0.001444	1.399929E-5	24.524833	135.186376	38.028508	140.433342	5.726169	0.281304	0.001536	0.004922
0.001638	1.405166E-5	0.001574	1.419512E-5	26.718200	137.260005	37.103099	142.186318	5.321703	0.270313	0.001638	0.004987
0.001843	1.426933E-5	0.001714	1.438869E-5	29.107187	139.267256	36.219598	143.900062	4.943798	0.260073	0.001843	0.005064
0.002048	1.452216E-5	0.001868	1.457998E-5	31.710145	141.213109	35.382916	145.578477	4.590912	0.250564	0.002048	0.005154
0.002253	1.477835E-5	0.002035	1.476903E-5	34.545908	143.102898	34.597835	147.225845	4.261745	0.241769	0.002253	0.005245
0.002458	1.499156E-5	0.002217	1.495584E-5	37.635262	144.941830	33.868645	148.846294	3.954969	0.233671	0.002458	0.005320
0.002662	1.518665E-5	0.002415	1.514048E-5	41.000354	146.736116	33.199240	150.444931	3.669357	0.226251	0.002662	0.005389
0.002867	1.534162E-5	0.002631	1.532307E-5	44.667058	148.491006	32.592946	152.025916	3.403535	0.219494	0.002867	0.005444
0.003072	1.549801E-5	0.002866	1.550372E-5	48.661613	150.212169	32.052990	153.593912	3.156367	0.213385	0.003072	0.005500
0.003277	1.568039E-5	0.003122	1.568250E-5	53.013497	151.904975	31.582149	155.153323	2.926676	0.207907	0.003277	0.005565
0.003686	1.590000E-5	0.003401	1.585963E-5	57.754078	153.575036	31.182942	156.708863	2.713382	0.203047	0.003686	0.005643
0.004096	1.613660E-5	0.003706	1.603526E-5	62.918307	155.228040	30.857550	158.265387	2.515411	0.198789	0.004096	0.005727
0.004506	1.637600E-5	0.004037	1.620957E-5	68.544854	156.869267	30.607896	159.827439	2.331720	0.195117	0.004506	0.005812
0.004915	1.657277E-5	0.004398	1.638284E-5	74.674905	158.503539	30.435722	161.399210	2.161358	0.192019	0.004915	0.005881
0.005325	1.674509E-5	0.004791	1.655526E-5	81.351827	160.136631	30.342666	162.985944	2.003470	0.189480	0.005325	0.005943
0.005734	1.687475E-5	0.005220	1.672714E-5	88.627383	161.773066	30.330003	164.591719	1.857120	0.187485	0.005734	0.005989
0.006144	1.700303E-5	0.005687	1.689879E-5	96.553048	163.417845	30.399049	166.221220	1.721553	0.186020	0.006144	0.006034
0.006554	1.715295E-5	0.006195	1.707051E-5	105.187757	165.075393	30.550879	167.878652	1.595990	0.185072	0.006554	0.006087
0.007373	1.733756E-5	0.006749	1.724270E-5	114.593275	166.750597	30.786578	169.568791	1.479745	0.184626	0.007373	0.006153
0.008192	1.756026E-5	0.007353	1.741571E-5	124.840322	168.447950	31.107121	171.296132	1.372122	0.184669	0.008192	0.006232
0.009011	1.780447E-5	0.008010	1.759000E-5	136.004582	170.171501	31.513387	173.064824	1.272493	0.185186	0.009011	0.006319
0.009830	1.802237E-5	0.008727	1.776597E-5	148.166199	171.925722	32.006327	174.879555	1.180293	0.186164	0.009830	0.006396
0.010650	1.824796E-5	0.009507	1.794412E-5	161.416440	173.714453	32.586783	176.744476	1.094960	0.187588	0.010650	0.006476
0.011469	1.843567E-5	0.010357	1.812498E-5	175.850681	175.541921	33.255703	178.664232	1.016000	0.189446	0.011469	0.006543
0.012288	1.862771E-5	0.011283	1.830908E-5	191.576911	177.411792	34.013973	180.643002	0.942927	0.191723	0.012288	0.006611
0.013107	1.884493E-5	0.012292	1.849700E-5	208.708620	179.327888	34.862537	182.685215	0.875312	0.194407	0.013107	0.006688
0.014746	1.908496E-5	0.013391	1.868931E-5	227.371470	181.294449	35.802593	184.795841	0.812749	0.197483	0.014746	0.006773
0.016384	1.933752E-5	0.014589	1.888673E-5	247.707842	183.314235	36.835002	186.978411	0.754834	0.200939	0.016384	0.006863
0.018022	1.962318E-5	0.015894	1.908990E-5	269.857047	185.391657	37.961076	189.238235	0.701254	0.204762	0.018022	0.006964
0.019661	1.988457E-5	0.017315	1.929954E-5	293.990039	187.529975	39.182108	191.579563	0.651653	0.208938	0.019661	0.007057
0.021299	2.017661E-5	0.018863	1.951646E-5	320.280096	189.732610	40.499370	194.006862	0.605741	0.213455	0.021299	0.007160
0.022938	2.042252E-5	0.020550	1.974148E-5	348.917512	192.003888	41.914668	196.525654	0.563244	0.218301	0.022938	0.007248
0.024576	2.063803E-5	0.022388	1.997545E-5	380.122743	194.346631	43.429524	199.139992	0.523883	0.223464	0.024576	0.007324
0.026214	2.084471E-5	0.024390	2.021930E-5	414.114368	196.764644	45.045682	201.854994	0.487438	0.228932	0.026214	0.007397
0.029491	2.110048E-5	0.026571	2.047393E-5	451.143991	199.261838	46.765309	204.676022	0.453682	0.234693	0.029491	0.007488
0.032768	2.141216E-5	0.028947	2.074048E-5	491.487736	201.842011	48.590724	207.608419	0.422408	0.240736	0.032768	0.007599
0.036045	2.178703E-5	0.031536	2.102000E-5	535.444336	204.508363	50.524091	210.656959	0.393425	0.247051	0.036045	0.007732
0.039322	2.214633E-5	0.034356	2.131366E-5	583.326890	207.265160	52.568090	213.827619	0.366566	0.253627	0.039322	0.007859
0.042598	2.250046E-5	0.037428	2.162266E-5	635.494541	210.115631	54.725329	217.125402	0.341664	0.260453	0.042598	0.007985
0.045875	2.271376E-5	0.040775	2.194843E-5	692.316767	213.064743	56.999204	220.557235	0.318578	0.267521	0.045875	0.008061
0.049152	2.293829E-5	0.044421	2.229225E-5	754.229576	216.116021	59.393032	224.128683	0.297162	0.274820	0.049152	0.008140
0.052429	2.323486E-5	0.048393	2.265572E-5	821.676296	219.273664	61.910285	227.846052	0.277294	0.282343	0.052429	0.008246
0.058982	2.363748E-5	0.052721	2.304043E-5	895.150168	222.542445	64.555123	231.716429	0.258858	0.290080	0.058982	0.008389
0.065536	2.419602E-5	0.057436	2.344812E-5	975.200086	225.926508	67.331751	235.746371	0.241742	0.298025	0.065536	0.008587
0.072090	2.483673E-5	0.062573	2.388060E-5	1062.405399	229.430991	70.244987	239.943614	0.225849	0.306170	0.072090	0.008814
0.078643	2.538692E-5	0.068168	2.433987E-5	1157.418595	233.059965	73.299568	244.314908	0.211086	0.314509	0.078643	0.009009
0.085197	2.599842E-5	0.074263	2.482802E-5	1260.917117	236.819102	76.501109	248.868855	0.197371	0.323036	0.085197	0.009226
0.091750	2.637644E-5	0.080905	2.534748E-5	1373.678128	240.713441	79.855606	253.613640	0.184624	0.331746	0.091750	0.009361
0.098304	2.671358E-5	0.088140	2.590064E-5	1496.526812	244.747735	83.369022	258.557243	0.172772	0.340632	0.098304	0.009480
0.104858	2.717119E-5	0.096022	2.649026E-5	1630.343889	248.928957	87.048907	263.710329	0.161751	0.349694	0.104858	0.009643
0.117965	2.779415E-5	0.104607	2.711908E-5	1776.156276	253.261167	90.902050	269.080659	0.151496	0.358926	0.117965	0.009864
0.131072	2.862037E-5	0.113963	2.779053E-5	1934.977302	257.751663	94.936822	274.679667	0.141955	0.368327	0.131072	0.010157
0.144179	2.965372E-5	0.124153	2.850773E-5	2108.012630	262.406539	99.162196	280.517972	0.133072	0.377895	0.144179	0.010524
0.157286	2.964776E-5	0.135256	2.927462E-5	2296.530547	267.231824	103.587307	286.606312	0.124800	0.387631	0.157286	0.010521
0.170394	3.108155E-5	0.147350	3.009506E-5	2501.895808	272.234448	108.222366	292.956780	0.117094	0.397534	0.170394	0.011030
0.183501	3.521512E-5	0.160530	3.097377E-5	2725.620418	277.421304	113.078426	299.581893	0.109913	0.407605	0.183501	0.012497
0.399815	4.279108E-5	0.174883	3.191502E-5	2969.341023	282.800253	118.167872	306.495725	0.103220	0.417849	0.399815	0.015186
0.599722	5.315472E-5	0.190524	3.292459E-5	3234.873793	288.378595	123.503754	313.712274	0.096978	0.428269	0.599722	0.018864
0.799630	6.515971E-5	0.207560	3.400775E-5	3524.161511	294.164353	129.100316	321.246880	0.091156	0.438871	0.799630	0.023124
0.999537	7.632551E-5	0.226122	3.517109E-5	3839.341371	300.164463	134.972174	329.114255	0.085722	0.449661	0.999537	0.027087
1.199450	8.760496E-5	0.246342	3.642136E-5	4182.669465	306.387857	141.136067	337.332045	0.080650	0.460645	1.199450	0.031089
1.399350	9.897684E-5	0.268371	3.776608E-5	4556.691617	312.843188	147.610265	345.918560	0.075914	0.471835	1.399350	0.035125
1.599260	0.000111	0.292369	3.921353E-5	4964.160706	319.540176	154.415104	354.894278	0.071491	0.483242	1.599260	0.039361
1.799170	0.000124	0.318519	4.077317E-5	5408.127704	326.485062	161.570123	364.276544	0.067357	0.494878	1.799170	0.043979
1.999070	0.000135	0.347000	4.245431E-5	5891.679124	333.690850	169.100537	374.091666	0.063495	0.506758	1.999070	0.048025
2.198980	0.000148	0.378031	4.426854E-5	6418.593270	341.164360	177.030662	384.360476	0.059882	0.518901	2.198980	0.052589
2.398890	0.000161	0.411839	4.622793E-5	6992.589105	348.915365	185.387464	395.108142	0.056504	0.531325	2.398890	0.057287
2.598800	0.000174	0.448666	4.834567E-5	7617.872293	356.954521	194.201642	406.362902	0.053343	0.544051	2.598800	0.061633
2.798700	0.000186	0.488789	5.063685E-5	8299.103021	365.291551	203.506138	418.153878	0.050385	0.557106	2.798700	0.066128
2.998610	0.000200	0.532492	5.311737E-5	9041.291645	373.934350	213.335084	430.509879	0.047616	0.570515	2.998610	0.070993
3.198520	0.000213	0.580112	5.580629E-5	9849.728521	382.895218	223.728980	443.467478	0.045023	0.584309	3.198520	0.075413
3.398430	0.000228	0.631987	5.872303E-5	10730.552154	392.182888	234.730443	457.062138	0.042594	0.598523	3.398430	0.080786
3.598340	0.000239	0.688503	6.189014E-5	11690.192394	401.806238	246.385494	471.332224	0.040319	0.613195	3.598340	0.084980
3.798240	0.000254	0.750072	6.533226E-5	12735.660853	411.771301	258.742290	486.315923	0.038185	0.628364	3.798240	0.090183
3.998150	0.000266	0.817150	6.907709E-5	13874.338214	422.093011	271.861554	502.066942	0.036187	0.644080	3.998150	0.094376
4.198060	0.000279	0.890234	7.315524E-5	15115.245275	432.772095	285.800118	518.626449	0.034311	0.660394	4.198060	0.099096
4.397960	0.000293	0.969831	7.759907E-5	16466.875020	443.817617	300.625078	536.049918	0.032553	0.677362	4.397960	0.103805
4.597870	0.000304	1.056561	8.244822E-5	17939.350288	455.236877	316.412325	554.398208	0.030904	0.695050	4.597870	0.108056
4.797780	0.000317	1.151052	8.774414E-5	19543.797776	467.028659	333.238257	573.727727	0.029356	0.713528	4.797780	0.112629
4.997690	0.000332	1.253972	9.353210E-5	21291.490816	479.194306	351.188934	594.105084	0.027903	0.732874	4.997690	0.117940
5.197590	0.000341	1.366117	9.986641E-5	23195.162539	491.737740	370.365795	615.610938	0.026540	0.753177	5.197590	0.121110
5.397500	0.000356	1.488278	0.000107	25269.497217	504.651039	390.872918	638.321478	0.025261	0.774541	5.397500	0.126395
5.597410	0.000371	1.621383	0.000114	27529.412840	517.922040	412.820734	662.317294	0.024059	0.797071	5.597410	0.131559
5.797320	0.000382	1.766362	0.000123	29990.877532	531.544196	436.341896	687.701594	0.022930	0.820895	5.797320	0.135715
5.997220	0.000397	1.924338	0.000132	32672.872419	545.495166	461.574469	714.573976	0.021871	0.846157	5.997220	0.140795
6.197130	0.000409	2.096398	0.000142	35594.760063	559.747825	488.668535	743.044120	0.020875	0.873016	6.197130	0.145016
6.397040	0.000423	2.283877	0.000153	38777.705700	574.270056	517.793280	773.237336	0.019940	0.901655	6.397040	0.150118
6.596950	0.000437	2.488120	0.000165	42245.373643	589.017057	549.132409	805.287214	0.019062	0.932286	6.596950	0.155176
6.796850	0.000453	2.710621	0.000179	46023.171238	603.932707	582.886884	839.340118	0.018237	0.965152	6.796850	0.160889
6.996760	0.000462	2.953009	0.000194	50138.787275	618.947690	619.278324	875.558043	0.017463	1.000534	6.996760	0.164036
7.196670	0.000474	3.217071	0.000210	54622.574904	633.974928	658.548535	914.117270	0.016735	1.038761	7.196670	0.168369
7.396580	0.000487	3.504796	0.000228	59507.418644	648.907374	700.961247	955.210684	0.016052	1.080218	7.396580	0.172955
7.596480	0.000503	3.818203	0.000248	64829.006450	663.616106	746.806915	999.053004	0.015411	1.125360	7.596480	0.178361
7.796390	0.000517	4.159647	0.000270	70626.453811	677.945976	796.406215	1045.884126	0.014809	1.174734	7.796390	0.183304
7.996300	0.000532	4.531619	0.000295	76942.646014	691.704047	850.099134	1095.957584	0.014244	1.228993	7.996300	0.188837
