MicroRheology Analysis v9.2.8
08/21/18 12:50:08 PM

Correlation Mode:	Cross
Geometry:	Transmission
Multi-Tau Duration (s):	45
Echo Duration (s):	45
Wavelength (nm):	685.0
Temperature (°C):	40.02
Cuvette Thickness (mm):	5.00
Absorption Length (mm):	Inf
Solvent:	Water
Solvent Refractive Index:	1.328
Particle Radius (nm):	300.0
Mean Count Rate (kHz):	793.8
l* (microns):	1069.13



Lag Time (s)	Mean Square Displacement (micron^2)	Fit Lag Time (s)	Mean Square Displacement Fit (micron^2)	Frequency(rad/s)	G1 (Pa)	G2 (Pa)	G* (Pa)	Complex Viscosity (Pa s)	Loss Tangent (-)	Time (s)	Creep Compliance (1/Pa)

7.212500E-6	6.899456E-6	7.212513E-6	6.755310E-6	2.501145	-1.665094	2.156585	2.724591	1.089337	-1.295173	7.212500E-6	0.001504
8.012500E-6	7.571512E-6	7.912034E-6	7.243588E-6	2.743734	-1.957760	2.397054	3.094947	1.128005	-1.224386	8.012500E-6	0.001650
8.812500E-6	8.121364E-6	8.679450E-6	7.735347E-6	3.009841	-2.280250	2.699466	3.533646	1.174031	-1.183846	8.812500E-6	0.001770
9.612500E-6	8.548986E-6	9.521264E-6	8.229994E-6	3.301748	-2.634600	3.078025	4.051587	1.227104	-1.168308	9.612500E-6	0.001863
1.041250E-5	8.837210E-6	1.044469E-5	8.727260E-6	3.621963	-3.021101	3.549273	4.660944	1.286856	-1.174828	1.041250E-5	0.001926
1.121250E-5	9.021308E-6	1.145769E-5	9.227160E-6	3.973220	-3.437750	4.132351	5.375356	1.352897	-1.202051	1.121250E-5	0.001966
1.201250E-5	9.227972E-6	1.256886E-5	9.729856E-6	4.358622	-3.879088	4.848479	6.209273	1.424595	-1.249902	1.201250E-5	0.002011
1.281250E-5	9.504891E-6	1.378796E-5	1.023584E-5	4.781339	-4.335783	5.721192	7.178513	1.501360	-1.319529	1.281250E-5	0.002072
1.441250E-5	1.002060E-5	1.512523E-5	1.074560E-5	5.245058	-4.793409	6.775484	8.299636	1.582373	-1.413500	1.441250E-5	0.002184
1.601250E-5	1.059028E-5	1.659212E-5	1.125980E-5	5.753785	-5.231458	8.036607	9.589327	1.666612	-1.536208	1.601250E-5	0.002308
1.761250E-5	1.114379E-5	1.820143E-5	1.177931E-5	6.311771	-5.622988	9.529460	11.064746	1.753034	-1.694733	1.761250E-5	0.002429
1.921250E-5	1.170336E-5	1.996656E-5	1.230487E-5	6.923935	-5.933611	11.276249	12.742117	1.840300	-1.900403	1.921250E-5	0.002551
2.081250E-5	1.212972E-5	2.190301E-5	1.283750E-5	7.595500	-6.121685	13.294685	14.636382	1.926981	-2.171736	2.081250E-5	0.002644
2.241250E-5	1.251811E-5	2.402757E-5	1.337814E-5	8.332195	-6.138716	15.595812	16.760465	2.011531	-2.540566	2.241250E-5	0.002729
2.401250E-5	1.304656E-5	2.635796E-5	1.392759E-5	9.140307	-5.930435	18.181752	19.124491	2.092325	-3.065838	2.401250E-5	0.002844
2.561250E-5	1.367359E-5	2.891399E-5	1.448669E-5	10.026737	-5.438552	21.044063	21.735465	2.167750	-3.869424	2.561250E-5	0.002981
2.881250E-5	1.441673E-5	3.171827E-5	1.505644E-5	10.999264	-4.603040	24.160435	24.595012	2.236060	-5.248800	2.881250E-5	0.003142
3.201250E-5	1.516170E-5	3.479486E-5	1.563759E-5	12.065958	-3.365664	27.495685	27.700910	2.295790	-8.169468	3.201250E-5	0.003305
3.521250E-5	1.577269E-5	3.816934E-5	1.623066E-5	13.236223	-1.672911	30.999334	31.044441	2.345415	-18.530179	3.521250E-5	0.003438
3.841250E-5	1.636542E-5	4.187124E-5	1.683635E-5	14.519935	0.519800	34.607799	34.611703	2.383737	66.579005	3.841250E-5	0.003567
4.161250E-5	1.695401E-5	4.593214E-5	1.745507E-5	15.928277	3.244712	38.244655	38.382050	2.409680	11.786764	4.161250E-5	0.003696
4.481250E-5	1.750963E-5	5.038702E-5	1.808717E-5	17.473162	6.518206	41.824389	42.329263	2.422530	6.416549	4.481250E-5	0.003817
4.801250E-5	1.812240E-5	5.527366E-5	1.873278E-5	19.167791	10.338692	45.255783	46.421702	2.421860	4.377322	4.801250E-5	0.003950
5.121250E-5	1.878524E-5	6.063512E-5	1.939206E-5	21.026617	14.685800	48.447043	50.623994	2.407615	3.298904	5.121250E-5	0.004095
5.761250E-5	1.948267E-5	6.651582E-5	2.006467E-5	23.066012	19.519205	51.308324	54.895751	2.379941	2.628607	5.761250E-5	0.004247
6.401250E-5	2.030981E-5	7.296687E-5	2.075037E-5	25.303227	24.779346	53.757987	59.194063	2.339388	2.169468	6.401250E-5	0.004427
7.041250E-5	2.107381E-5	8.004385E-5	2.144869E-5	27.757155	30.391363	55.727451	63.475852	2.286828	1.833661	7.041250E-5	0.004594
7.681250E-5	2.181013E-5	8.780672E-5	2.215884E-5	30.449187	36.267521	57.163065	67.697481	2.223294	1.576150	7.681250E-5	0.004754
8.321250E-5	2.244620E-5	9.632357E-5	2.288008E-5	33.402310	42.311782	58.029908	71.817526	2.150077	1.371483	8.321250E-5	0.004893
8.961250E-5	2.297511E-5	0.000106	2.361108E-5	36.642293	48.422923	58.311703	75.796004	2.068539	1.204217	8.961250E-5	0.005008
9.601250E-5	2.353398E-5	0.000116	2.435080E-5	40.196163	54.500916	58.013058	79.598145	1.980242	1.064442	9.601250E-5	0.005130
0.000102	2.418779E-5	0.000127	2.509773E-5	44.094547	60.451410	57.156750	83.194152	1.886722	0.945499	0.000102	0.005272
0.000115	2.488263E-5	0.000139	2.585015E-5	48.371080	66.188847	55.782049	86.559808	1.789495	0.842771	0.000115	0.005424
0.000128	2.567858E-5	0.000153	2.660622E-5	53.062593	71.638700	53.942025	89.676337	1.690010	0.752973	0.000128	0.005597
0.000141	2.640894E-5	0.000168	2.736402E-5	58.208360	76.742140	51.700809	92.532857	1.589683	0.673695	0.000141	0.005757
0.000154	2.703441E-5	0.000184	2.812139E-5	63.853902	81.454741	49.128516	95.123530	1.489706	0.603139	0.000154	0.005893
0.000166	2.763686E-5	0.000202	2.887607E-5	70.047290	85.747038	46.299656	97.448513	1.391182	0.539956	0.000166	0.006024
0.000179	2.814936E-5	0.000222	2.962583E-5	76.840947	89.604956	43.289164	99.513817	1.295062	0.483111	0.000179	0.006136
0.000192	2.865395E-5	0.000243	3.036810E-5	84.293081	93.028612	40.169203	101.330586	1.202122	0.431794	0.000192	0.006246
0.000205	2.924090E-5	0.000267	3.110041E-5	92.468721	96.029163	37.007384	102.913297	1.112953	0.385377	0.000205	0.006374
0.000230	2.990898E-5	0.000293	3.182038E-5	101.436558	98.628575	33.865309	104.280655	1.028038	0.343362	0.000230	0.006519
0.000256	3.061643E-5	0.000321	3.252557E-5	111.275676	100.855331	30.797203	105.452669	0.947670	0.305360	0.000256	0.006674
0.000282	3.130216E-5	0.000352	3.321353E-5	122.066686	102.744927	27.849693	106.452456	0.872084	0.271057	0.000282	0.006823
0.000307	3.183515E-5	0.000386	3.388197E-5	133.905801	104.335773	25.060743	107.303283	0.801334	0.240193	0.000307	0.006939
0.000333	3.232888E-5	0.000424	3.452863E-5	146.893898	105.667916	22.461479	108.028823	0.735421	0.212567	0.000333	0.007047
0.000358	3.273341E-5	0.000465	3.515167E-5	161.140506	106.782031	20.075720	108.652827	0.674274	0.188007	0.000358	0.007135
0.000384	3.316262E-5	0.000510	3.574924E-5	176.768378	107.717903	17.920571	109.198414	0.617749	0.166366	0.000384	0.007229
0.000410	3.364305E-5	0.000559	3.631983E-5	193.913578	108.513076	16.007793	109.687452	0.565651	0.147519	0.000410	0.007333
0.000461	3.416952E-5	0.000613	3.686203E-5	212.721099	109.202528	14.344643	110.140642	0.517770	0.131358	0.000461	0.007448
0.000512	3.471223E-5	0.000673	3.737499E-5	233.350371	109.818420	12.934207	110.577480	0.473869	0.117778	0.000512	0.007566
0.000563	3.524196E-5	0.000738	3.785802E-5	255.983801	110.389138	11.776633	111.015544	0.433682	0.106683	0.000563	0.007682
0.000614	3.568596E-5	0.000810	3.831085E-5	280.810441	110.939852	10.869878	111.471095	0.396962	0.097980	0.000614	0.007779
0.000666	3.608467E-5	0.000888	3.873352E-5	308.044924	111.492265	10.210018	111.958785	0.363450	0.091576	0.000666	0.007866
0.000717	3.643909E-5	0.000974	3.912658E-5	337.921732	112.064722	9.792022	112.491714	0.332893	0.087378	0.000717	0.007943
0.000768	3.678079E-5	0.001069	3.949074E-5	370.693656	112.672663	9.610073	113.081751	0.305054	0.085292	0.000768	0.008017
0.000819	3.718437E-5	0.001173	3.982741E-5	406.647194	113.328577	9.657928	113.739360	0.279700	0.085221	0.000819	0.008105
0.000922	3.760950E-5	0.001286	4.013818E-5	446.087564	114.042464	9.929170	114.473893	0.256618	0.087066	0.000922	0.008198
0.001024	3.807813E-5	0.001411	4.042509E-5	489.349653	114.822311	10.417425	115.293911	0.235606	0.090726	0.001024	0.008300
0.001126	3.853753E-5	0.001548	4.069070E-5	536.815465	115.673912	11.116414	116.206836	0.216474	0.096101	0.001126	0.008400
0.001229	3.893507E-5	0.001698	4.093774E-5	588.879733	116.601630	12.019971	117.219536	0.199055	0.103086	0.001229	0.008487
0.001331	3.932104E-5	0.001863	4.116952E-5	645.986996	117.608792	13.122435	118.338608	0.183190	0.111577	0.001331	0.008571
0.001434	3.964961E-5	0.002044	4.138965E-5	708.646430	118.697143	14.418183	119.569627	0.168730	0.121470	0.001434	0.008643
0.001536	3.995279E-5	0.002242	4.160201E-5	777.367467	119.868332	15.901949	120.918522	0.155549	0.132662	0.001536	0.008709
0.001638	4.029326E-5	0.002459	4.181096E-5	852.764139	121.123108	17.568911	122.390661	0.143522	0.145050	0.001638	0.008783
0.001843	4.068224E-5	0.002698	4.202114E-5	935.477129	122.461803	19.414052	123.991123	0.132543	0.158531	0.001843	0.008868
0.002048	4.115206E-5	0.002959	4.223751E-5	1026.196841	123.885321	21.433047	125.725686	0.122516	0.173007	0.002048	0.008970
0.002253	4.167341E-5	0.003246	4.246543E-5	1125.736703	125.393779	23.621515	127.599278	0.113347	0.188379	0.002253	0.009084
0.002458	4.213731E-5	0.003561	4.271054E-5	1234.914827	126.988293	25.975226	129.617665	0.104961	0.204548	0.002458	0.009185
0.002662	4.260739E-5	0.003906	4.297888E-5	1354.689079	128.669935	28.490305	131.786379	0.097282	0.221422	0.002662	0.009287
0.002867	4.300396E-5	0.004285	4.327686E-5	1486.075049	130.440536	31.162949	134.111383	0.090245	0.238905	0.002867	0.009374
0.003072	4.333614E-5	0.004701	4.361121E-5	1630.205546	132.302306	33.989486	136.598629	0.083792	0.256908	0.003072	0.009446
0.003277	4.371063E-5	0.005157	4.398926E-5	1788.302444	134.258735	36.966797	139.254989	0.077870	0.275340	0.003277	0.009528
0.003686	4.414355E-5	0.005657	4.441872E-5	1961.758187	136.313208	40.091600	142.086689	0.072428	0.294114	0.003686	0.009622
0.004096	4.462555E-5	0.006206	4.490783E-5	2152.024366	138.470538	43.360791	145.100821	0.067425	0.313141	0.004096	0.009727
0.004506	4.515350E-5	0.006808	4.546555E-5	2360.742346	140.735963	46.771528	148.304373	0.062821	0.332335	0.004506	0.009842
0.004915	4.564201E-5	0.007468	4.610158E-5	2589.677232	143.116441	50.321789	151.705629	0.058581	0.351614	0.004915	0.009949
0.005325	4.608603E-5	0.008192	4.682635E-5	2840.849684	145.618762	54.009514	155.312109	0.054671	0.370897	0.005325	0.010046
0.005734	4.642682E-5	0.008987	4.765126E-5	3116.384861	148.250964	57.832788	159.131957	0.051063	0.390101	0.005734	0.010120
0.006144	4.678269E-5	0.009858	4.858925E-5	3418.645341	151.021628	61.790095	163.173368	0.047730	0.409147	0.006144	0.010197
0.006554	4.720633E-5	0.010814	4.965395E-5	3750.200940	153.940324	65.880512	167.445111	0.044650	0.427961	0.006554	0.010290
0.007373	4.777003E-5	0.011863	5.086116E-5	4113.897530	157.017563	70.104044	171.956658	0.041799	0.446473	0.007373	0.010413
0.008192	4.848750E-5	0.013014	5.222803E-5	4512.898064	160.263987	74.461101	176.717292	0.039158	0.464615	0.008192	0.010569
0.009011	4.936033E-5	0.014276	5.377429E-5	4950.628551	163.690027	78.952041	181.735659	0.036710	0.482327	0.009011	0.010759
0.009830	5.025958E-5	0.015661	5.552205E-5	5430.754239	167.307812	83.578945	187.022308	0.034438	0.499552	0.009830	0.010955
0.010650	5.123718E-5	0.017180	5.749613E-5	5957.461629	171.128854	88.344795	192.587350	0.032327	0.516247	0.010650	0.011168
0.011469	5.203264E-5	0.018846	5.972478E-5	6535.261279	175.164661	93.253470	198.441095	0.030365	0.532376	0.011469	0.011342
0.012288	5.281299E-5	0.020674	6.224113E-5	7169.082084	179.427171	98.310753	204.595000	0.028539	0.547915	0.012288	0.011512
0.013107	5.365925E-5	0.022679	6.508204E-5	7864.412980	183.927423	103.523897	211.060404	0.026837	0.562852	0.013107	0.011696
0.014746	5.473539E-5	0.024878	6.829044E-5	8627.198083	188.675823	108.902019	217.849067	0.025251	0.577191	0.014746	0.011931
0.016384	5.609485E-5	0.027291	7.191596E-5	9463.926929	193.681841	114.456619	224.973272	0.023772	0.590952	0.016384	0.012227
0.018022	5.776801E-5	0.029938	7.601610E-5	10381.675215	198.956523	120.204361	232.449535	0.022390	0.604174	0.018022	0.012592
0.019661	5.957405E-5	0.032842	8.065607E-5	11388.649695	204.505551	126.162872	240.290638	0.021099	0.616917	0.019661	0.012986
0.021299	6.162540E-5	0.036027	8.591325E-5	12493.151762	210.336526	132.356069	248.514754	0.019892	0.629259	0.021299	0.013433
0.022938	6.340220E-5	0.039521	9.187678E-5	13704.849712	216.453237	138.812289	257.139759	0.018763	0.641304	0.022938	0.013820
0.024576	6.558301E-5	0.043354	9.865182E-5	15034.017641	222.858290	145.566590	266.186870	0.017706	0.653180	0.024576	0.014295
0.026214	6.838975E-5	0.047559	0.000106	16492.093286	229.552364	152.662217	275.681048	0.016716	0.665043	0.026214	0.014907
0.029491	7.207348E-5	0.052171	0.000115	18091.800623	236.529820	160.148562	285.646491	0.015789	0.677076	0.029491	0.015710
0.032768	7.655901E-5	0.057231	0.000125	19846.381314	243.785219	168.087862	296.116130	0.014920	0.689492	0.032768	0.016688
0.036045	8.164827E-5	0.062781	0.000137	21771.246120	251.305804	176.552551	307.124422	0.014107	0.702541	0.036045	0.017797
0.039322	8.683111E-5	0.068871	0.000150	23882.739806	259.074145	185.628958	318.712288	0.013345	0.716509	0.039322	0.018927
0.042598	9.272613E-5	0.075550	0.000165	26199.037397	267.064672	195.418123	330.925643	0.012631	0.731726	0.042598	0.020212
0.045875	9.796551E-5	0.082878	0.000182	28739.873121	275.244806	206.040423	343.820243	0.011963	0.748572	0.045875	0.021354
0.049152	0.000104	0.090915	0.000202	31527.573168	283.565601	217.631934	357.453646	0.011338	0.767484	0.049152	0.022676
0.052429	0.000112	0.099733	0.000225	34585.331119	291.965355	230.351371	371.894504	0.010753	0.788968	0.052429	0.024438
0.058982	0.000123	0.109406	0.000251	37939.199488	300.365372	244.384933	387.225195	0.010206	0.813626	0.058982	0.026828
0.065536	0.000137	0.120016	0.000282	41618.865646	308.657679	259.942175	403.533763	0.009696	0.842170	0.065536	0.029907
0.072090	0.000154	0.131657	0.000317	45655.828513	316.699746	277.256597	420.915608	0.009219	0.875456	0.072090	0.033550
0.078643	0.000171	0.144427	0.000358	50083.741487	324.310554	296.593173	439.482475	0.008775	0.914534	0.078643	0.037263
0.085197	0.000189	0.158434	0.000405	54940.726636	331.256772	318.250120	459.362807	0.008361	0.960735	0.085197	0.041245
0.091750	0.000206	0.173799	0.000460	60269.587127	337.231737	342.546862	480.690749	0.007976	1.015761	0.091750	0.044843
0.098304	0.000226	0.190656	0.000523	66114.694767	341.852275	369.835478	503.628096	0.007617	1.081858	0.098304	0.049197
0.104858	0.000252	0.209146	0.000596	72527.070218	344.630864	400.492873	528.360647	0.007285	1.162092	0.104858	0.055023
0.117965	0.000287	0.229430	0.000681	79561.711689	344.960575	434.917334	555.113399	0.006977	1.260774	0.117965	0.062656
0.131072	0.000327	0.251685	0.000778	87277.653580	342.104302	473.552825	584.198281	0.006694	1.384235	0.131072	0.071311
0.144179	0.000374	0.276093	0.000889	95742.465268	335.168880	516.907055	616.060940	0.006435	1.542229	0.144179	0.081572
0.157286	0.000430	0.302870	0.001017	105028.070142	323.101161	565.638753	651.415044	0.006202	1.750655	0.157286	0.093669
0.170394	0.000470	0.332243	0.001163	115214.676313	304.655243	620.723511	691.456791	0.006001	2.037462	0.170394	0.102389
0.183501	0.000516	0.364467	0.001328	126389.753088	278.312814	683.764283	738.235475	0.005841	2.456819	0.183501	0.112514
