MicroRheology Analysis v9.2.8
08/21/18 2:43:02 PM

Correlation Mode:	Cross
Geometry:	Transmission
Multi-Tau Duration (s):	45
Echo Duration (s):	45
Wavelength (nm):	685.0
Temperature (°C):	20.01
Cuvette Thickness (mm):	5.00
Absorption Length (mm):	Inf
Solvent:	Water
Solvent Refractive Index:	1.329
Particle Radius (nm):	300.0
Mean Count Rate (kHz):	783.2
l* (microns):	989.86



Lag Time (s)	Mean Square Displacement (micron^2)	Fit Lag Time (s)	Mean Square Displacement Fit (micron^2)	Frequency(rad/s)	G1 (Pa)	G2 (Pa)	G* (Pa)	Complex Viscosity (Pa s)	Loss Tangent (-)	Time (s)	Creep Compliance (1/Pa)

3.012500E-6	2.433685E-6	3.012554E-6	2.449364E-6	0.079401	0.316287	3.130143	3.146082	39.622594	9.896520	3.012500E-6	0.000567
3.212500E-6	2.617239E-6	3.265623E-6	2.606989E-6	0.086072	0.373383	3.379166	3.399732	39.498916	9.050133	3.212500E-6	0.000609
3.612500E-6	2.803924E-6	3.539923E-6	2.772993E-6	0.093303	0.440884	3.645971	3.672531	39.361527	8.269686	3.612500E-6	0.000653
4.012500E-6	2.993840E-6	3.837342E-6	2.947758E-6	0.101141	0.520072	3.931246	3.965498	39.207526	7.559043	4.012500E-6	0.000697
4.412500E-6	3.252048E-6	4.159736E-6	3.131557E-6	0.109637	0.612356	4.235786	4.279821	39.036331	6.917194	4.412500E-6	0.000757
4.812500E-6	3.480694E-6	4.509161E-6	3.324692E-6	0.118848	0.719227	4.560173	4.616542	38.844195	6.340378	4.812500E-6	0.000810
5.212500E-6	3.606790E-6	4.887944E-6	3.527518E-6	0.128832	0.842267	4.904955	4.976746	38.629726	5.823518	5.212500E-6	0.000840
5.612500E-6	3.879758E-6	5.298639E-6	3.740404E-6	0.139654	0.983164	5.270640	5.361554	38.391560	5.360898	5.612500E-6	0.000903
6.012500E-6	4.154426E-6	5.743787E-6	3.963604E-6	0.151387	1.143707	5.657644	5.772088	38.128141	4.946761	6.012500E-6	0.000967
6.412500E-6	4.386353E-6	6.226302E-6	4.197450E-6	0.164106	1.325718	6.066111	6.209285	37.836987	4.575718	6.412500E-6	0.001021
7.212500E-6	4.692517E-6	6.749289E-6	4.442242E-6	0.177893	1.531108	6.496191	6.674188	37.518062	4.242803	7.212500E-6	0.001093
8.012500E-6	5.064039E-6	7.316387E-6	4.698400E-6	0.192836	1.761874	6.947905	7.167816	37.170439	3.943475	8.012500E-6	0.001179
8.812500E-6	5.527167E-6	7.931022E-6	4.966108E-6	0.209036	2.020036	7.421056	7.691074	36.792992	3.673725	8.812500E-6	0.001287
9.612500E-6	5.820345E-6	8.597256E-6	5.245694E-6	0.226597	2.307644	7.915290	8.244819	36.385309	3.430031	9.612500E-6	0.001355
1.041250E-5	6.136219E-6	9.319497E-6	5.537476E-6	0.245634	2.626786	8.430127	8.829895	35.947375	3.209294	1.041250E-5	0.001429
1.121250E-5	6.286166E-6	1.010251E-5	5.841755E-6	0.266272	2.979430	8.964641	9.446787	35.477964	3.008844	1.121250E-5	0.001464
1.201250E-5	6.566865E-6	1.095110E-5	6.158685E-6	0.288638	3.367708	9.518194	10.096409	34.979517	2.826312	1.201250E-5	0.001529
1.281250E-5	6.854274E-6	1.187108E-5	6.488631E-6	0.312888	3.793554	10.089467	10.779072	34.450203	2.659634	1.281250E-5	0.001596
1.441250E-5	7.266046E-6	1.286836E-5	6.831796E-6	0.339175	4.258852	10.677158	11.495196	33.891678	2.507051	1.441250E-5	0.001692
1.601250E-5	7.640419E-6	1.394958E-5	7.188449E-6	0.367668	4.765367	11.279657	12.244974	33.304419	2.367007	1.601250E-5	0.001779
1.761250E-5	8.077487E-6	1.512132E-5	7.558643E-6	0.398551	5.314914	11.895448	13.028814	32.690437	2.238126	1.761250E-5	0.001881
1.921250E-5	8.391461E-6	1.639171E-5	7.942722E-6	0.432036	5.908956	12.522377	13.846505	32.049389	2.119220	1.921250E-5	0.001954
2.081250E-5	8.831198E-6	1.776872E-5	8.340747E-6	0.468333	6.548865	13.158382	14.697981	31.383641	2.009261	2.081250E-5	0.002056
2.241250E-5	9.237697E-6	1.926144E-5	8.752900E-6	0.507679	7.235756	13.801046	15.582844	30.694266	1.907340	2.241250E-5	0.002151
2.401250E-5	9.684584E-6	2.087985E-5	9.179352E-6	0.550328	7.970542	14.447881	16.500630	29.983290	1.812660	2.401250E-5	0.002255
2.561250E-5	1.030927E-5	2.263365E-5	9.619977E-6	0.596553	8.754139	15.096503	17.451056	29.253143	1.724499	2.561250E-5	0.002401
2.881250E-5	1.103970E-5	2.453499E-5	1.007502E-5	0.646674	9.586802	15.743812	18.432970	28.504253	1.642238	2.881250E-5	0.002571
3.201250E-5	1.167263E-5	2.659618E-5	1.054449E-5	0.700996	10.468897	16.387262	19.445826	27.740288	1.565328	3.201250E-5	0.002718
3.521250E-5	1.223791E-5	2.883062E-5	1.102837E-5	0.759893	11.400079	17.023545	20.488116	26.961851	1.493283	3.521250E-5	0.002850
3.841250E-5	1.272288E-5	3.125281E-5	1.152662E-5	0.823722	12.380141	17.649990	21.558989	26.172646	1.425670	3.841250E-5	0.002963
4.161250E-5	1.324086E-5	3.387824E-5	1.203911E-5	0.892923	13.408505	18.263564	22.657135	25.374118	1.362088	4.161250E-5	0.003083
4.481250E-5	1.383152E-5	3.672456E-5	1.256585E-5	0.967952	14.483733	18.860856	23.780463	24.567809	1.302210	4.481250E-5	0.003221
4.801250E-5	1.449675E-5	3.980977E-5	1.310660E-5	1.049257	15.604862	19.439366	24.927910	23.757685	1.245725	4.801250E-5	0.003376
5.121250E-5	1.514409E-5	4.315410E-5	1.366123E-5	1.137409	16.770255	19.995982	26.097524	22.944705	1.192348	5.121250E-5	0.003526
5.761250E-5	1.578938E-5	4.677896E-5	1.422946E-5	1.232972	17.977625	20.527671	27.286998	22.131069	1.141846	5.761250E-5	0.003677
6.401250E-5	1.655871E-5	5.070934E-5	1.481127E-5	1.336531	19.225380	21.032306	28.495142	21.320220	1.093986	6.401250E-5	0.003856
7.041250E-5	1.736448E-5	5.496901E-5	1.540610E-5	1.448833	20.510648	21.506825	29.719189	20.512503	1.048569	7.041250E-5	0.004043
7.681250E-5	1.811245E-5	5.958752E-5	1.601388E-5	1.570546	21.830732	21.949106	30.957134	19.711063	1.005422	7.681250E-5	0.004218
8.321250E-5	1.884157E-5	6.459331E-5	1.663404E-5	1.702477	23.183002	22.357143	32.207040	18.917756	0.964377	8.321250E-5	0.004387
8.961250E-5	1.942946E-5	7.001920E-5	1.726623E-5	1.845517	24.564072	22.728792	33.466276	18.133823	0.925286	8.961250E-5	0.004524
9.601250E-5	2.004014E-5	7.590148E-5	1.791013E-5	2.000557	25.970494	23.062440	34.732444	17.361385	0.888025	9.601250E-5	0.004666
0.000102	2.076930E-5	8.227819E-5	1.856525E-5	2.168591	27.399336	23.356985	36.003783	16.602387	0.852465	0.000102	0.004836
0.000115	2.160168E-5	8.918998E-5	1.923099E-5	2.350786	28.846835	23.611032	37.277617	15.857511	0.818496	0.000115	0.005030
0.000128	2.253561E-5	9.668252E-5	1.990690E-5	2.548282	30.309140	23.823777	38.551476	15.128416	0.786026	0.000128	0.005248
0.000141	2.346759E-5	0.000105	2.059256E-5	2.762333	31.783025	23.994930	39.823578	14.416644	0.754961	0.000141	0.005465
0.000154	2.425752E-5	0.000114	2.128706E-5	2.994413	33.264646	24.124040	41.091434	13.722702	0.725216	0.000154	0.005648
0.000166	2.499797E-5	0.000123	2.198985E-5	3.245986	34.750308	24.211241	42.352900	13.047777	0.696720	0.000166	0.005821
0.000179	2.560521E-5	0.000133	2.270050E-5	3.518689	36.236365	24.256879	43.605852	12.392643	0.669407	0.000179	0.005962
0.000192	2.627307E-5	0.000145	2.341824E-5	3.814280	37.719355	24.261633	44.848373	11.758018	0.643214	0.000192	0.006118
0.000205	2.705469E-5	0.000157	2.414240E-5	4.134691	39.196222	24.226486	46.078916	11.144463	0.618082	0.000205	0.006300
0.000230	2.791832E-5	0.000170	2.487198E-5	4.482094	40.663127	24.152358	47.295097	10.552009	0.593962	0.000230	0.006501
0.000256	2.885186E-5	0.000184	2.560665E-5	4.858572	42.117465	24.040982	48.495873	9.981508	0.570808	0.000256	0.006718
0.000282	2.976855E-5	0.000200	2.634545E-5	5.266737	43.556244	23.893790	49.679569	9.432704	0.548573	0.000282	0.006932
0.000307	3.052711E-5	0.000217	2.708772E-5	5.709193	44.976901	23.712700	50.844997	8.905811	0.527220	0.000307	0.007108
0.000333	3.126113E-5	0.000235	2.783273E-5	6.188879	46.376612	23.499634	51.990604	8.400650	0.506713	0.000333	0.007279
0.000358	3.188178E-5	0.000255	2.857940E-5	6.708770	47.753442	23.256945	53.115692	7.917352	0.487021	0.000358	0.007424
0.000384	3.254504E-5	0.000276	2.932749E-5	7.272385	49.105382	22.986848	54.219311	7.455506	0.468113	0.000384	0.007578
0.000410	3.328175E-5	0.000299	3.007578E-5	7.883367	50.430645	22.691805	55.300705	7.014859	0.449961	0.000410	0.007750
0.000461	3.410438E-5	0.000324	3.082368E-5	8.545671	51.727699	22.374368	56.359269	6.595066	0.432541	0.000461	0.007941
0.000512	3.500554E-5	0.000351	3.157037E-5	9.263572	52.995235	22.037164	57.394525	6.195723	0.415833	0.000512	0.008151
0.000563	3.589357E-5	0.000381	3.231529E-5	10.041670	54.232793	21.682912	58.406717	5.816435	0.399812	0.000563	0.008358
0.000614	3.662266E-5	0.000413	3.305758E-5	10.885371	55.439153	21.314122	59.395214	5.456425	0.384460	0.000614	0.008528
0.000666	3.729302E-5	0.000448	3.379650E-5	11.799764	56.614212	20.933694	60.360489	5.115398	0.369760	0.000666	0.008684
0.000717	3.784152E-5	0.000485	3.453147E-5	12.791115	57.757488	20.544194	61.302458	4.792581	0.355697	0.000717	0.008812
0.000768	3.837392E-5	0.000526	3.526189E-5	13.865603	58.869372	20.148399	62.221869	4.487498	0.342256	0.000768	0.008936
0.000819	3.898682E-5	0.000570	3.598690E-5	15.030622	59.949690	19.748825	63.118788	4.199346	0.329423	0.000819	0.009078
0.000922	3.972628E-5	0.000618	3.670611E-5	16.293268	60.998957	19.348210	63.993952	3.927631	0.317189	0.000922	0.009250
0.001024	4.052675E-5	0.000670	3.741892E-5	17.661823	62.018169	18.949033	64.848432	3.671673	0.305540	0.001024	0.009437
0.001126	4.131563E-5	0.000726	3.812476E-5	19.145659	63.008006	18.553646	65.682925	3.430695	0.294465	0.001126	0.009621
0.001229	4.197598E-5	0.000787	3.882333E-5	20.754220	63.969252	18.164492	66.498225	3.204082	0.283957	0.001229	0.009774
0.001331	4.258775E-5	0.000854	3.951383E-5	22.497614	64.903372	17.783906	67.295728	2.991239	0.274006	0.001331	0.009917
0.001434	4.309011E-5	0.000925	4.019625E-5	24.387762	65.811503	17.413991	68.076435	2.791418	0.264604	0.001434	0.010034
0.001536	4.365619E-5	0.001003	4.087003E-5	26.436637	66.695023	17.056909	68.841588	2.604022	0.255745	0.001536	0.010166
0.001638	4.429529E-5	0.001087	4.153495E-5	28.657462	67.555510	16.714669	69.592579	2.428428	0.247421	0.001638	0.010314
0.001843	4.500910E-5	0.001179	4.219077E-5	31.064777	68.394714	16.389155	70.330941	2.264009	0.239626	0.001843	0.010481
0.002048	4.575939E-5	0.001278	4.283725E-5	33.674592	69.214208	16.082152	71.058020	2.110137	0.232353	0.002048	0.010655
0.002253	4.650127E-5	0.001385	4.347428E-5	36.503462	70.015944	15.795411	71.775535	1.966267	0.225597	0.002253	0.010828
0.002458	4.710017E-5	0.001501	4.410177E-5	39.570410	70.801575	15.530519	72.484895	1.831795	0.219353	0.002458	0.010967
0.002662	4.768580E-5	0.001627	4.471972E-5	42.894674	71.572983	15.289065	73.187754	1.706220	0.213615	0.002662	0.011104
0.002867	4.819977E-5	0.001764	4.532825E-5	46.497780	72.332435	15.072489	73.886136	1.589025	0.208378	0.002867	0.011224
0.003072	4.875449E-5	0.001912	4.592746E-5	50.404823	73.081444	14.882106	74.581329	1.479647	0.203637	0.003072	0.011353
0.003277	4.941583E-5	0.002073	4.651729E-5	54.638978	73.822158	14.719312	75.275290	1.377685	0.199389	0.003277	0.011507
0.003686	5.014904E-5	0.002247	4.709814E-5	59.228669	74.556653	14.585305	75.969899	1.282654	0.195627	0.003686	0.011677
0.004096	5.090660E-5	0.002436	4.767013E-5	64.204314	75.286986	14.481259	76.667053	1.194111	0.192347	0.004096	0.011854
0.004506	5.162887E-5	0.002641	4.823382E-5	69.598916	76.014860	14.408287	77.368325	1.111631	0.189546	0.004506	0.012022
0.004915	5.222392E-5	0.002862	4.878946E-5	75.445490	76.742405	14.367522	78.075748	1.034863	0.187218	0.004915	0.012161
0.005325	5.282501E-5	0.003103	4.933751E-5	81.783167	77.471784	14.360009	78.791415	0.963418	0.185358	0.005325	0.012301
0.005734	5.333548E-5	0.003364	4.987854E-5	88.655069	78.204500	14.386714	79.516799	0.896923	0.183963	0.005734	0.012419
0.006144	5.386618E-5	0.003646	5.041314E-5	96.101633	78.942945	14.448722	80.254309	0.835098	0.183027	0.006144	0.012543
0.006554	5.450036E-5	0.003952	5.094177E-5	104.175990	79.688643	14.546942	81.005514	0.777583	0.182547	0.006554	0.012691
0.007373	5.520300E-5	0.004285	5.146529E-5	112.926406	80.443899	14.682440	81.772825	0.724125	0.182518	0.007373	0.012854
0.008192	5.600000E-5	0.004644	5.198439E-5	122.414871	81.210116	14.856115	82.557781	0.674410	0.182934	0.008192	0.013040
0.009011	5.685330E-5	0.005035	5.249985E-5	132.697236	81.989479	15.069024	83.362763	0.628218	0.183792	0.009011	0.013239
0.009830	5.753269E-5	0.005458	5.301260E-5	143.844939	82.783818	15.322202	84.189847	0.585282	0.185087	0.009830	0.013397
0.010650	5.817652E-5	0.005916	5.352343E-5	155.931094	83.594695	15.616642	85.040888	0.545375	0.186814	0.010650	0.013547
0.011469	5.870108E-5	0.006413	5.403348E-5	169.030786	84.423892	15.953392	85.918009	0.508298	0.188968	0.011469	0.013669
0.012288	5.912204E-5	0.006952	5.454379E-5	183.229027	85.273414	16.333639	86.823631	0.473853	0.191544	0.012288	0.013767
0.013107	5.949128E-5	0.007536	5.505529E-5	198.622796	86.144789	16.758517	87.759743	0.441841	0.194539	0.013107	0.013853
0.014746	5.982152E-5	0.008169	5.556915E-5	215.308648	87.039832	17.229252	88.728685	0.412100	0.197947	0.014746	0.013930
0.016384	6.015870E-5	0.008855	5.608681E-5	233.397085	87.960221	17.747134	89.732721	0.384464	0.201763	0.016384	0.014008
0.018022	6.064343E-5	0.009599	5.660921E-5	253.005404	88.907534	18.313465	90.774074	0.358783	0.205983	0.018022	0.014121
0.019661	6.128926E-5	0.010406	5.713798E-5	274.258523	89.883762	18.929778	91.855469	0.334923	0.210603	0.019661	0.014271
0.021299	6.210905E-5	0.011280	5.767422E-5	297.302157	90.890276	19.597534	92.979060	0.312743	0.215617	0.021299	0.014462
0.022938	6.290846E-5	0.012227	5.821972E-5	322.279086	91.928797	20.318284	94.147418	0.292130	0.221022	0.022938	0.014648
0.024576	6.391329E-5	0.013255	5.877566E-5	349.352454	93.001104	21.093792	95.363271	0.272972	0.226812	0.024576	0.014882
0.026214	6.507180E-5	0.014368	5.934376E-5	378.701159	94.108890	21.925911	96.629337	0.255160	0.232984	0.026214	0.015152
0.029491	6.619231E-5	0.015575	5.992579E-5	410.516735	95.253591	22.816448	97.948134	0.238597	0.239534	0.029491	0.015413
0.032768	6.726571E-5	0.016884	6.052326E-5	444.998063	96.437348	23.767608	99.323015	0.223199	0.246456	0.032768	0.015663
0.036045	6.812816E-5	0.018302	6.113799E-5	482.382707	97.661590	24.781565	100.756697	0.208873	0.253749	0.036045	0.015864
0.039322	6.872028E-5	0.019839	6.177194E-5	522.905150	98.928434	25.860784	102.252702	0.195547	0.261409	0.039322	0.016002
0.042598	6.965230E-5	0.021506	6.242722E-5	566.841932	100.239183	27.007617	103.813800	0.183144	0.269432	0.042598	0.016219
0.045875	7.051801E-5	0.023313	6.310548E-5	614.463206	101.595706	28.224603	105.443424	0.171603	0.277813	0.045875	0.016420
0.049152	7.115208E-5	0.025271	6.380915E-5	666.079538	102.999979	29.514663	107.145280	0.160860	0.286550	0.049152	0.016568
0.052429	7.196473E-5	0.027395	6.454045E-5	722.031724	104.453965	30.880915	108.923192	0.150857	0.295641	0.052429	0.016757
0.058982	7.311997E-5	0.029696	6.530156E-5	782.687862	105.959510	32.326563	110.780976	0.141539	0.305084	0.058982	0.017026
0.065536	7.441635E-5	0.032191	6.609508E-5	848.440002	107.518690	33.855078	112.722824	0.132859	0.314876	0.065536	0.017328
0.072090	7.615591E-5	0.034895	6.692345E-5	919.720829	109.133404	35.470068	114.752889	0.124769	0.325016	0.072090	0.017733
0.078643	7.785437E-5	0.037826	6.778946E-5	996.989213	110.805705	37.175354	116.875623	0.117229	0.335500	0.078643	0.018129
0.085197	7.924214E-5	0.041004	6.869602E-5	1080.745874	112.537961	38.975211	119.096011	0.110198	0.346329	0.085197	0.018452
0.091750	8.015322E-5	0.044449	6.964607E-5	1171.547056	114.331798	40.873718	121.418371	0.103639	0.357501	0.091750	0.018664
0.098304	8.117401E-5	0.048183	7.064260E-5	1269.953268	116.190566	42.876086	123.849128	0.097523	0.369015	0.098304	0.018902
0.104858	8.260293E-5	0.052231	7.168926E-5	1376.659512	118.115587	44.986970	126.392719	0.091811	0.380872	0.104858	0.019234
0.117965	8.469507E-5	0.056619	7.278936E-5	1492.308119	120.109854	47.211696	129.055497	0.086480	0.393071	0.117965	0.019722
0.131072	8.755007E-5	0.061375	7.394641E-5	1617.676402	122.175790	49.556017	131.843553	0.081502	0.405612	0.131072	0.020386
0.144179	9.072942E-5	0.066531	7.516472E-5	1753.575890	124.315839	52.025778	134.763161	0.076850	0.418497	0.144179	0.021127
0.157286	9.064691E-5	0.072121	7.644863E-5	1900.877213	126.533494	54.627895	137.822103	0.072504	0.431727	0.157286	0.021107
0.170394	9.480278E-5	0.078179	7.780202E-5	2060.587464	128.830710	57.368812	141.026708	0.068440	0.445304	0.170394	0.022075
0.183501	0.000107	0.084747	7.923011E-5	2233.692346	131.210708	60.255672	144.384888	0.064640	0.459228	0.183501	0.024965
0.399815	0.000128	0.091866	8.073754E-5	2421.327542	133.676979	63.296623	147.905365	0.061084	0.473504	0.399815	0.029798
0.599722	0.000155	0.099585	8.233022E-5	2624.745674	136.232513	66.499928	151.596630	0.057757	0.488136	0.599722	0.036094
0.799630	0.000184	0.107950	8.401309E-5	2845.259920	138.880147	69.873888	155.467216	0.054641	0.503124	0.799630	0.042832
0.999537	0.000208	0.117018	8.579296E-5	3084.261951	141.624157	73.428326	159.527806	0.051723	0.518473	0.999537	0.048373
1.199444	0.000231	0.126849	8.767627E-5	3343.365510	144.467772	77.173190	163.788395	0.048989	0.534190	1.199444	0.053691
1.399352	0.000254	0.137506	8.966997E-5	3624.232092	147.415627	81.119772	168.261061	0.046427	0.550279	1.399352	0.059173
1.599259	0.000277	0.149059	9.178150E-5	3928.765806	150.469454	85.277764	172.954773	0.044023	0.566745	1.599259	0.064590
1.799167	0.000300	0.161580	9.401877E-5	4258.752486	153.636186	89.660956	177.885257	0.041769	0.583593	1.799167	0.069841
1.999074	0.000323	0.175156	9.639107E-5	4616.578818	156.918182	94.281546	183.063721	0.039654	0.600833	1.999074	0.075273
2.198982	0.000347	0.189871	9.890703E-5	5004.424151	160.320364	99.153050	188.504500	0.037668	0.618468	2.198982	0.080740
2.398889	0.000370	0.205822	0.000102	5424.830935	163.847825	104.290671	194.223206	0.035803	0.636509	2.398889	0.086241
2.598796	0.000396	0.223110	0.000104	5880.585498	167.504140	109.708993	200.234113	0.034050	0.654963	2.598796	0.092242
2.798704	0.000418	0.241856	0.000107	6374.513352	171.296932	115.426807	206.557465	0.032404	0.673840	2.798704	0.097311
2.998611	0.000441	0.262173	0.000111	6910.105263	175.229428	121.460933	213.209078	0.030855	0.693154	2.998611	0.102687
3.198519	0.000464	0.284197	0.000114	7490.654556	179.307501	127.830097	220.208341	0.029398	0.712910	3.198519	0.108089
3.398426	0.000487	0.308073	0.000118	8119.946363	183.536182	134.553939	227.574807	0.028027	0.733119	3.398426	0.113291
3.598333	0.000509	0.333955	0.000121	8801.976899	187.923155	141.655790	235.332690	0.026736	0.753796	3.598333	0.118573
3.798241	0.000528	0.362013	0.000126	9541.396753	192.475047	149.160163	243.506464	0.025521	0.774958	3.798241	0.122951
3.998148	0.000549	0.392421	0.000130	10343.131538	197.195629	157.089216	252.117310	0.024375	0.796616	3.998148	0.127924
4.198056	0.000572	0.425390	0.000135	11212.022392	202.093285	165.470273	261.193621	0.023296	0.818782	4.198056	0.133229
4.397963	0.000598	0.461129	0.000140	12153.889617	207.175477	174.332927	270.764931	0.022278	0.841475	4.397963	0.139137
4.597870	0.000617	0.499861	0.000145	13174.972860	212.448610	183.706951	280.860563	0.021318	0.864712	4.597870	0.143667
4.797778	0.000634	0.541854	0.000151	14281.797709	217.919929	193.624235	291.512332	0.020411	0.888511	4.797778	0.147544
4.997685	0.000660	0.587380	0.000157	15481.480039	223.598566	204.121145	302.756933	0.019556	0.912891	4.997685	0.153744
5.197593	0.000683	0.636721	0.000163	16782.037675	229.493047	215.236287	314.632671	0.018748	0.937877	5.197593	0.158969
5.397500	0.000703	0.690211	0.000170	18192.068610	235.609010	227.006443	327.175076	0.017984	0.963488	5.397500	0.163646
5.597407	0.000725	0.748205	0.000177	19720.233944	241.958976	239.478471	340.432202	0.017263	0.989748	5.597407	0.168839
5.797315	0.000749	0.811048	0.000185	21377.133009	248.547544	252.694077	354.443477	0.016580	1.016683	5.797315	0.174388
5.997222	0.000778	0.879191	0.000194	23172.769201	255.387771	266.706133	369.262881	0.015935	1.044318	5.997222	0.181192
6.197130	0.000803	0.953056	0.000203	25119.460415	262.487907	281.567426	384.941706	0.015324	1.072687	6.197130	0.186927
6.397037	0.000825	1.033109	0.000213	27229.735683	269.858506	297.335715	401.537222	0.014746	1.101821	6.397037	0.192053
6.596945	0.000845	1.119917	0.000223	29517.475075	277.507706	314.069565	419.106452	0.014199	1.131751	6.596945	0.196877
6.796852	0.000869	1.214002	0.000234	31997.118419	285.448383	331.837664	437.717962	0.013680	1.162514	6.796852	0.202368
