MicroRheology Analysis v9.2.8
08/21/18 2:46:24 PM

Correlation Mode:	Cross
Geometry:	Transmission
Multi-Tau Duration (s):	45
Echo Duration (s):	45
Wavelength (nm):	685.0
Temperature (°C):	25.00
Cuvette Thickness (mm):	5.00
Absorption Length (mm):	Inf
Solvent:	Water
Solvent Refractive Index:	1.329
Particle Radius (nm):	300.0
Mean Count Rate (kHz):	776.0
l* (microns):	969.15



Lag Time (s)	Mean Square Displacement (micron^2)	Fit Lag Time (s)	Mean Square Displacement Fit (micron^2)	Frequency(rad/s)	G1 (Pa)	G2 (Pa)	G* (Pa)	Complex Viscosity (Pa s)	Loss Tangent (-)	Time (s)	Creep Compliance (1/Pa)

4.412500E-6	4.172915E-6	4.412526E-6	3.951510E-6	0.079401	1.257483	2.950907	3.207665	40.398108	2.346677	4.412500E-6	0.000955
4.812500E-6	4.240281E-6	4.781685E-6	4.178397E-6	0.086045	1.225906	3.165237	3.394344	39.448524	2.581957	4.812500E-6	0.000971
5.212500E-6	4.377058E-6	5.181745E-6	4.413682E-6	0.093243	1.199123	3.393064	3.598720	38.595182	2.829621	5.212500E-6	0.001002
5.612500E-6	4.583286E-6	5.615296E-6	4.657543E-6	0.101044	1.177865	3.636158	3.822174	37.826892	3.087076	5.612500E-6	0.001049
6.012500E-6	5.006156E-6	6.085051E-6	4.910116E-6	0.109498	1.162976	3.896293	4.066155	37.134530	3.350279	6.012500E-6	0.001146
6.412500E-6	5.219909E-6	6.594172E-6	5.171653E-6	0.118659	1.155432	4.175365	4.332285	36.510528	3.613684	6.412500E-6	0.001195
7.212500E-6	5.494942E-6	7.145859E-6	5.442294E-6	0.128587	1.156311	4.475133	4.622107	35.945419	3.870182	7.212500E-6	0.001258
8.012500E-6	5.771438E-6	7.743675E-6	5.722228E-6	0.139343	1.166906	4.797600	4.937473	35.433893	4.111384	8.012500E-6	0.001321
8.812500E-6	6.201904E-6	8.391559E-6	6.011679E-6	0.151002	1.188641	5.144608	5.280138	34.967402	4.328144	8.812500E-6	0.001420
9.612500E-6	6.414870E-6	9.093709E-6	6.310838E-6	0.163636	1.223161	5.518025	5.651966	34.539903	4.511282	9.612500E-6	0.001469
1.041250E-5	6.735070E-6	9.854501E-6	6.619825E-6	0.177327	1.272312	5.919623	6.054810	34.144916	4.652650	1.041250E-5	0.001542
1.121250E-5	6.951878E-6	1.067900E-5	6.938887E-6	0.192160	1.338221	6.351420	6.490869	33.778489	4.746165	1.121250E-5	0.001592
1.201250E-5	7.300501E-6	1.157231E-5	7.268118E-6	0.208238	1.423192	6.815019	6.962037	33.433044	4.788547	1.201250E-5	0.001671
1.281250E-5	7.662280E-6	1.254046E-5	7.607798E-6	0.225661	1.529820	7.312095	7.470414	33.104652	4.779710	1.281250E-5	0.001754
1.441250E-5	8.129989E-6	1.358985E-5	7.958134E-6	0.244540	1.660941	7.844116	8.018035	32.788182	4.722695	1.441250E-5	0.001861
1.601250E-5	8.526246E-6	1.472671E-5	8.319109E-6	0.264998	1.819700	8.412596	8.607153	32.480075	4.623068	1.601250E-5	0.001952
1.761250E-5	8.907011E-6	1.595884E-5	8.691024E-6	0.287172	2.009413	9.018446	9.239594	32.174440	4.488099	1.761250E-5	0.002039
1.921250E-5	9.366732E-6	1.729385E-5	9.073914E-6	0.311197	2.233700	9.662636	9.917456	31.868781	4.325844	1.921250E-5	0.002145
2.081250E-5	9.732126E-6	1.874074E-5	9.468020E-6	0.337231	2.496433	10.345852	10.642783	31.559371	4.144253	2.081250E-5	0.002228
2.241250E-5	1.011230E-5	2.030897E-5	9.873481E-6	0.365446	2.801650	11.068259	11.417337	31.242217	3.950621	2.241250E-5	0.002315
2.401250E-5	1.056057E-5	2.200782E-5	1.029018E-5	0.396022	3.153532	11.829615	12.242735	30.914316	3.751228	2.401250E-5	0.002418
2.561250E-5	1.108330E-5	2.384907E-5	1.071841E-5	0.429151	3.556528	12.629616	13.120827	30.573943	3.551108	2.561250E-5	0.002538
2.881250E-5	1.159894E-5	2.584436E-5	1.115816E-5	0.465059	4.015022	13.466936	14.052714	30.217067	3.354137	2.881250E-5	0.002656
3.201250E-5	1.226472E-5	2.800671E-5	1.160951E-5	0.503966	4.533514	14.340137	15.039690	29.842680	3.163139	3.201250E-5	0.002808
3.521250E-5	1.283677E-5	3.034992E-5	1.207244E-5	0.546128	5.116461	15.247071	16.082641	29.448493	2.980003	3.521250E-5	0.002939
3.841250E-5	1.337481E-5	3.288883E-5	1.254690E-5	0.591815	5.768352	16.185315	17.182500	29.033585	2.805882	3.841250E-5	0.003062
4.161250E-5	1.394113E-5	3.564077E-5	1.303303E-5	0.641334	6.493222	17.151203	18.339184	28.595375	2.641401	4.161250E-5	0.003192
4.481250E-5	1.452436E-5	3.862245E-5	1.353058E-5	0.694984	7.295149	18.141270	19.553130	28.134642	2.486758	4.481250E-5	0.003325
4.801250E-5	1.511424E-5	4.185372E-5	1.403957E-5	0.753131	8.177865	19.151112	20.824086	27.650031	2.341823	4.801250E-5	0.003461
5.121250E-5	1.573894E-5	4.535570E-5	1.455992E-5	0.816153	9.144278	20.175248	22.150811	27.140527	2.206325	5.121250E-5	0.003604
5.761250E-5	1.640569E-5	4.915046E-5	1.509140E-5	0.884427	10.197227	21.208553	23.532661	26.607812	2.079835	5.761250E-5	0.003756
6.401250E-5	1.713878E-5	5.326165E-5	1.563372E-5	0.958416	11.339096	22.245179	24.968442	26.051792	1.961812	6.401250E-5	0.003924
7.041250E-5	1.787688E-5	5.771835E-5	1.618700E-5	1.038612	12.571031	23.278139	26.455672	25.472137	1.851729	7.041250E-5	0.004093
7.681250E-5	1.856863E-5	6.254696E-5	1.675067E-5	1.125498	13.893973	24.301033	27.992547	24.871253	1.749034	7.681250E-5	0.004251
8.321250E-5	1.919617E-5	6.777965E-5	1.732458E-5	1.219662	15.308034	25.306703	29.576429	24.249699	1.653165	8.321250E-5	0.004395
8.961250E-5	1.971603E-5	7.345093E-5	1.790848E-5	1.321714	16.812011	26.287440	31.203737	23.608535	1.563611	8.961250E-5	0.004514
9.601250E-5	2.030435E-5	7.959579E-5	1.850182E-5	1.432279	18.404679	27.236452	32.871820	22.950710	1.479866	9.601250E-5	0.004649
0.000102	2.102036E-5	8.625480E-5	1.910430E-5	1.552126	20.082887	28.145526	34.575902	22.276473	1.401468	0.000102	0.004813
0.000115	2.180454E-5	9.347237E-5	1.971561E-5	1.681957	21.843621	29.008080	36.312704	21.589562	1.327989	0.000115	0.004992
0.000128	2.266731E-5	0.000101	2.033504E-5	1.822674	23.682535	29.816697	38.077525	20.891026	1.259016	0.000128	0.005190
0.000141	2.349211E-5	0.000110	2.096212E-5	1.975166	25.594586	30.564776	39.865880	20.183555	1.194189	0.000141	0.005379
0.000154	2.422215E-5	0.000119	2.159638E-5	2.140441	27.573204	31.245513	41.672097	19.468929	1.133184	0.000154	0.005546
0.000166	2.489296E-5	0.000129	2.223724E-5	2.319491	29.612303	31.853789	43.491981	18.750656	1.075694	0.000166	0.005699
0.000179	2.546921E-5	0.000140	2.288410E-5	2.513563	31.704243	32.383957	45.319750	18.030081	1.021439	0.000179	0.005831
0.000192	2.605796E-5	0.000151	2.353616E-5	2.723853	33.841236	32.831845	47.150390	17.310183	0.970173	0.000192	0.005966
0.000205	2.672090E-5	0.000164	2.419284E-5	2.951752	36.014678	33.193587	48.978273	16.592953	0.921668	0.000205	0.006118
0.000230	2.747438E-5	0.000178	2.485334E-5	3.198693	38.216216	33.466648	50.798580	15.881043	0.875719	0.000230	0.006290
0.000256	2.830652E-5	0.000193	2.551711E-5	3.466339	40.436529	33.648760	52.605626	15.176133	0.832138	0.000256	0.006481
0.000282	2.911228E-5	0.000209	2.618321E-5	3.756355	42.666508	33.739058	54.394438	14.480642	0.790762	0.000282	0.006665
0.000307	2.979945E-5	0.000226	2.685077E-5	4.070629	44.896908	33.737336	56.159952	13.796381	0.751440	0.000307	0.006823
0.000333	3.041141E-5	0.000245	2.751908E-5	4.411160	47.119028	33.644516	57.897809	13.125303	0.714032	0.000333	0.006963
0.000358	3.092323E-5	0.000266	2.818732E-5	4.780206	49.324084	33.462106	59.603505	12.468814	0.678413	0.000358	0.007080
0.000384	3.145096E-5	0.000288	2.885453E-5	5.180141	51.503618	33.192603	61.272926	11.828428	0.644471	0.000384	0.007201
0.000410	3.205876E-5	0.000312	2.952001E-5	5.613548	53.649497	32.839249	62.902185	11.205423	0.612107	0.000410	0.007340
0.000461	3.275598E-5	0.000338	3.018286E-5	6.083197	55.754197	32.406086	64.487866	10.600983	0.581231	0.000461	0.007500
0.000512	3.348175E-5	0.000366	3.084219E-5	6.592108	57.810991	31.897790	66.027113	10.016085	0.551760	0.000512	0.007666
0.000563	3.417345E-5	0.000397	3.149716E-5	7.143610	59.813926	31.319534	67.517545	9.451460	0.523616	0.000563	0.007824
0.000614	3.475442E-5	0.000430	3.214688E-5	7.741348	61.756875	30.676896	68.956389	8.907542	0.496737	0.000614	0.007957
0.000666	3.528447E-5	0.000466	3.279048E-5	8.388953	63.635744	29.976269	70.342623	8.385150	0.471060	0.000666	0.008079
0.000717	3.573007E-5	0.000505	3.342732E-5	9.090890	65.445831	29.223775	71.674164	7.884174	0.446534	0.000717	0.008181
0.000768	3.617405E-5	0.000547	3.405632E-5	9.851331	67.184809	28.426383	72.951064	7.405199	0.423107	0.000768	0.008282
0.000819	3.664659E-5	0.000593	3.467687E-5	10.675644	68.849671	27.590500	74.172184	6.947795	0.400735	0.000819	0.008390
0.000922	3.718050E-5	0.000643	3.528832E-5	11.568780	70.438896	26.723274	75.337716	6.512157	0.379382	0.000922	0.008513
0.001024	3.774932E-5	0.000697	3.588981E-5	12.536610	71.951883	25.831402	76.448249	6.098000	0.359009	0.001024	0.008643
0.001126	3.830908E-5	0.000755	3.648076E-5	13.585561	73.387927	24.921580	77.504019	5.704882	0.339587	0.001126	0.008771
0.001229	3.876949E-5	0.000818	3.706047E-5	14.721979	74.748140	24.000530	78.506750	5.332622	0.321085	0.001229	0.008877
0.001331	3.923072E-5	0.000887	3.762826E-5	15.953757	76.033339	23.074369	79.457506	4.980489	0.303477	0.001331	0.008982
0.001434	3.963554E-5	0.000961	3.818395E-5	17.288531	77.245385	22.149343	80.358217	4.648065	0.286740	0.001434	0.009075
0.001536	4.005247E-5	0.001041	3.872676E-5	18.735153	78.385985	21.231290	81.210408	4.334654	0.270856	0.001536	0.009170
0.001638	4.048692E-5	0.001128	3.925635E-5	20.302291	79.458582	20.325747	82.017085	4.039795	0.255803	0.001638	0.009270
0.001843	4.093211E-5	0.001223	3.977237E-5	22.001184	80.465614	19.437634	82.780050	3.762527	0.241564	0.001843	0.009372
0.002048	4.140188E-5	0.001325	4.027449E-5	23.841759	81.410799	18.571972	83.502314	3.502355	0.228127	0.002048	0.009479
0.002253	4.191013E-5	0.001436	4.076262E-5	25.836479	82.297752	17.733006	84.186575	3.258438	0.215474	0.002253	0.009596
0.002458	4.236284E-5	0.001556	4.123655E-5	27.998021	83.130322	16.924832	84.835725	3.030062	0.203594	0.002458	0.009699
0.002662	4.280138E-5	0.001686	4.169622E-5	30.340141	83.912938	16.151015	85.453125	2.816504	0.192473	0.002662	0.009800
0.002867	4.316117E-5	0.001827	4.214149E-5	32.878882	84.649450	15.414804	86.041534	2.616924	0.182102	0.002867	0.009882
0.003072	4.351921E-5	0.001980	4.257262E-5	35.629484	85.344399	14.719237	86.604402	2.430695	0.172469	0.003072	0.009964
0.003277	4.394225E-5	0.002146	4.298965E-5	38.610510	86.001995	14.066826	87.144815	2.257023	0.163564	0.003277	0.010061
0.003686	4.444632E-5	0.002325	4.339271E-5	41.840622	86.626643	13.459891	87.666094	2.095239	0.155378	0.003686	0.010176
0.004096	4.500391E-5	0.002520	4.378231E-5	45.340880	87.222734	12.900346	88.171562	1.944637	0.147901	0.004096	0.010304
0.004506	4.554527E-5	0.002731	4.415858E-5	49.134249	87.794566	12.389849	88.664504	1.804536	0.141123	0.004506	0.010428
0.004915	4.598479E-5	0.002959	4.452216E-5	53.245555	88.346192	11.929873	89.148031	1.674281	0.135036	0.004915	0.010529
0.005325	4.638811E-5	0.003207	4.487340E-5	57.700579	88.881578	11.521713	89.625246	1.553282	0.129630	0.005325	0.010621
0.005734	4.671717E-5	0.003475	4.521309E-5	62.527133	89.405011	11.166324	90.099627	1.440968	0.124896	0.005734	0.010696
0.006144	4.704228E-5	0.003766	4.554169E-5	67.759227	89.919981	10.864500	90.573950	1.336703	0.120824	0.006144	0.010771
0.006554	4.744395E-5	0.004081	4.586008E-5	73.427727	90.430339	10.616990	91.051451	1.240015	0.117405	0.006554	0.010863
0.007373	4.791258E-5	0.004422	4.616904E-5	79.571010	90.939526	10.424298	91.535039	1.150357	0.114629	0.007373	0.010970
0.008192	4.848803E-5	0.004792	4.646939E-5	86.227945	91.450963	10.286876	92.027704	1.067261	0.112485	0.008192	0.011102
0.009011	4.911723E-5	0.005193	4.676213E-5	93.442348	91.967800	10.205068	92.532263	0.990260	0.110963	0.009011	0.011246
0.009830	4.968102E-5	0.005627	4.704828E-5	101.260172	92.493101	10.179165	93.051540	0.918935	0.110053	0.009830	0.011375
0.010650	5.017626E-5	0.006098	4.732893E-5	109.732217	93.029713	10.209391	93.588243	0.852878	0.109743	0.010650	0.011488
0.011469	5.050545E-5	0.006608	4.760516E-5	118.912554	93.580398	10.295944	94.145087	0.791717	0.110022	0.011469	0.011564
0.012288	5.075946E-5	0.007161	4.787826E-5	128.860866	94.147818	10.439016	94.724783	0.735093	0.110879	0.012288	0.011622
0.013107	5.098757E-5	0.007760	4.814949E-5	139.642970	94.734297	10.638770	95.329799	0.682668	0.112301	0.013107	0.011674
0.014746	5.123236E-5	0.008410	4.842013E-5	151.326039	95.342143	10.895367	95.962666	0.634145	0.114277	0.014746	0.011730
0.016384	5.151634E-5	0.009113	4.869160E-5	163.985035	95.973699	11.209050	96.626051	0.589237	0.116793	0.016384	0.011795
0.018022	5.192461E-5	0.009876	4.896538E-5	177.705194	96.630924	11.580053	97.322316	0.547662	0.119838	0.018022	0.011888
0.019661	5.238581E-5	0.010702	4.924295E-5	192.572365	97.315824	12.008644	98.053950	0.509180	0.123399	0.019661	0.011994
0.021299	5.298717E-5	0.011597	4.952592E-5	208.683248	98.030256	12.495152	98.823378	0.473557	0.127462	0.021299	0.012132
0.022938	5.351693E-5	0.012567	4.981588E-5	226.141230	98.776121	13.040011	99.633147	0.440579	0.132016	0.022938	0.012253
0.024576	5.418410E-5	0.013619	5.011457E-5	245.062056	99.555053	13.643688	100.485615	0.410042	0.137047	0.024576	0.012406
0.026214	5.489285E-5	0.014758	5.042372E-5	265.565672	100.368623	14.306642	101.383137	0.381763	0.142541	0.026214	0.012568
0.029491	5.559535E-5	0.015993	5.074527E-5	287.781633	101.218716	15.029606	102.328479	0.355577	0.148486	0.029491	0.012729
0.032768	5.623759E-5	0.017331	5.108092E-5	311.862416	102.106478	15.813177	103.323711	0.331312	0.154869	0.032768	0.012876
0.036045	5.679922E-5	0.018781	5.143286E-5	337.950243	103.033853	16.658213	104.371791	0.308838	0.161677	0.036045	0.013005
0.039322	5.735975E-5	0.020352	5.180307E-5	366.227192	104.001984	17.565583	105.474937	0.288004	0.168897	0.039322	0.013133
0.042598	5.834657E-5	0.022055	5.219361E-5	396.863834	105.012778	18.536381	106.636209	0.268697	0.176515	0.042598	0.013359
0.045875	5.922505E-5	0.023900	5.260674E-5	430.072737	106.067173	19.571573	107.857738	0.250790	0.184521	0.045875	0.013560
0.049152	5.980587E-5	0.025900	5.304480E-5	466.048583	107.167216	20.672471	109.142857	0.234188	0.192899	0.049152	0.013693
0.052429	6.018023E-5	0.028067	5.351024E-5	505.043766	108.314138	21.840509	110.494164	0.218781	0.201640	0.052429	0.013779
0.058982	6.069181E-5	0.030415	5.400552E-5	547.300892	109.509286	23.076910	111.914375	0.204484	0.210730	0.058982	0.013896
0.065536	6.131632E-5	0.032960	5.453343E-5	593.084232	110.754709	24.383496	113.407057	0.191216	0.220158	0.065536	0.014039
0.072090	6.233092E-5	0.035717	5.509650E-5	642.709206	112.051630	25.761982	114.974987	0.178891	0.229912	0.072090	0.014271
0.078643	6.340416E-5	0.038705	5.569786E-5	696.481281	113.401821	27.214149	116.621537	0.167444	0.239980	0.078643	0.014517
0.085197	6.447661E-5	0.041943	5.634055E-5	754.751458	114.806812	28.741940	118.349918	0.156806	0.250350	0.085197	0.014762
0.091750	6.530183E-5	0.045452	5.702773E-5	817.886814	116.268760	30.347699	120.164085	0.146920	0.261013	0.091750	0.014951
0.098304	6.637021E-5	0.049256	5.776309E-5	886.311298	117.789430	32.033886	122.067685	0.137726	0.271959	0.098304	0.015196
0.104858	6.762892E-5	0.053376	5.854977E-5	960.463711	119.370744	33.802973	124.064562	0.129172	0.283176	0.104858	0.015484
0.117965	6.925014E-5	0.057842	5.939220E-5	1040.821396	121.015001	35.657838	126.159074	0.121211	0.294656	0.117965	0.015855
0.131072	7.124982E-5	0.062681	6.029411E-5	1127.917514	122.723395	37.600819	128.354405	0.113798	0.306387	0.131072	0.016313
0.144179	7.339881E-5	0.067926	6.126001E-5	1222.263317	124.499330	39.635396	130.656220	0.106897	0.318358	0.144179	0.016805
0.157286	7.263927E-5	0.073608	6.229428E-5	1324.525551	126.344799	41.765115	133.068904	0.100465	0.330565	0.157286	0.016631
0.170394	7.542399E-5	0.079766	6.340240E-5	1435.350382	128.262081	43.993222	135.597069	0.094470	0.342995	0.170394	0.017269
0.183501	8.488892E-5	0.086440	6.458927E-5	1555.438695	130.254099	46.323595	138.246179	0.088879	0.355640	0.183501	0.019436
0.399815	0.000103	0.093671	6.586080E-5	1685.582209	132.323138	48.760015	141.021104	0.083663	0.368492	0.399815	0.023685
0.599722	0.000130	0.101509	6.722332E-5	1826.590865	134.472459	51.306812	143.927868	0.078796	0.381541	0.599722	0.029762
0.799630	0.000161	0.110000	6.868275E-5	1979.391973	136.705772	53.969179	146.973264	0.074252	0.394783	0.799630	0.036912
0.999537	0.000191	0.119204	7.024709E-5	2145.019258	139.025137	56.751366	150.162266	0.070005	0.408209	0.999537	0.043620
1.199444	0.000220	0.129176	7.192320E-5	2324.464039	141.434913	59.658809	153.502469	0.066038	0.421811	1.199444	0.050382
1.399352	0.000250	0.139985	7.372008E-5	2518.943014	143.938362	62.697130	157.000581	0.062328	0.435583	1.399352	0.057138
1.599259	0.000279	0.151697	7.564598E-5	2729.694928	146.539285	65.872124	160.663931	0.058858	0.449519	1.599259	0.063962
1.799167	0.000308	0.164387	7.771077E-5	2958.079409	149.241646	69.190045	164.500247	0.055610	0.463611	1.799167	0.070611
1.999074	0.000337	0.178140	7.992508E-5	3205.569321	152.049512	72.657467	168.517541	0.052570	0.477854	1.999074	0.077135
2.198982	0.000365	0.193045	8.230020E-5	3473.751372	154.967190	76.281381	172.724286	0.049723	0.492242	2.198982	0.083509
2.398889	0.000395	0.209196	8.484826E-5	3764.345280	157.999979	80.069905	177.130413	0.047055	0.506772	2.398889	0.090418
2.598796	0.000422	0.226698	8.758254E-5	4079.289100	161.152106	84.030886	181.744851	0.044553	0.521438	2.598796	0.096635
2.798704	0.000452	0.245662	9.051733E-5	4420.568335	164.428774	88.172848	186.577794	0.042207	0.536237	2.798704	0.103432
2.998611	0.000480	0.266215	9.366886E-5	4790.391773	167.835864	92.505521	191.640676	0.040005	0.551167	2.998611	0.109894
3.198519	0.000506	0.288489	9.705397E-5	5191.209478	171.378549	97.038631	196.944416	0.037938	0.566224	3.198519	0.115930
3.398426	0.000536	0.312628	0.000101	5625.583320	175.061628	101.781655	202.499578	0.035996	0.581405	3.398426	0.122637
3.598333	0.000559	0.338782	0.000105	6096.200630	178.892429	106.746540	208.320246	0.034172	0.596708	3.598333	0.128073
3.798241	0.000587	0.367127	0.000109	6606.227267	182.876632	111.945126	214.419155	0.032457	0.612135	3.798241	0.134443
3.998148	0.000614	0.397842	0.000113	7158.903754	187.021633	117.390821	220.811449	0.030844	0.627686	3.998148	0.140546
4.198056	0.000637	0.431129	0.000118	7757.899586	191.333110	123.096557	227.510706	0.029326	0.643363	4.198056	0.145809
4.397963	0.000664	0.467193	0.000123	8406.955323	195.818319	129.076799	234.532800	0.027897	0.659166	4.397963	0.152111
4.597871	0.000688	0.506286	0.000129	9110.265364	200.484728	135.347430	241.894715	0.026552	0.675101	4.597871	0.157610
4.797778	0.000713	0.548645	0.000135	9872.392794	205.340454	141.925911	249.615036	0.025284	0.691174	4.797778	0.163347
4.997685	0.000738	0.594546	0.000142	10698.349047	210.393694	148.830961	257.713331	0.024089	0.707393	4.997685	0.169084
5.197593	0.000762	0.644277	0.000149	11593.558177	215.650290	156.080018	266.206724	0.022962	0.723764	5.197593	0.174567
5.397500	0.000787	0.698188	0.000156	12563.479028	221.119754	163.694529	275.117874	0.021898	0.740298	5.397500	0.180076
5.597408	0.000814	0.756593	0.000165	13614.531971	226.811356	171.698218	284.470858	0.020895	0.757009	5.597408	0.186417
5.797315	0.000838	0.819900	0.000173	14753.691151	232.731578	180.113478	294.287024	0.019947	0.773911	5.797315	0.191838
5.997222	0.000867	0.888496	0.000183	15987.986738	238.890051	188.966712	304.592966	0.019051	0.791020	5.997222	0.198596
6.197130	0.000889	0.962823	0.000193	17325.512976	245.297028	198.287907	315.418335	0.018205	0.808358	6.197130	0.203530
6.397037	0.000911	1.043389	0.000205	18775.235566	251.956850	208.103111	326.786106	0.017405	0.825947	6.397037	0.208602
6.596945	0.000934	1.130676	0.000217	20345.690895	258.883366	218.449308	338.733962	0.016649	0.843814	6.596945	0.213739
6.796852	0.000956	1.225261	0.000230	22047.944947	266.083149	229.361235	351.293066	0.015933	0.861991	6.796852	0.218771
6.996759	0.000979	1.327791	0.000244	23892.738472	273.563378	240.875351	364.496717	0.015256	0.880510	6.996759	0.224137
7.196667	0.001007	1.438882	0.000259	25891.677151	281.332766	253.033361	378.383413	0.014614	0.899409	7.196667	0.230487
7.396574	0.001029	1.559250	0.000276	28057.755422	289.400894	265.882704	392.996807	0.014007	0.918735	7.396574	0.235657
7.596482	0.001055	1.689718	0.000294	30405.459360	297.770787	279.467994	408.374584	0.013431	0.938534	7.596482	0.241454
