MicroRheology Analysis v9.2.8
10/02/18 5:19:54 PM

Correlation Mode:	Cross
Geometry:	Transmission
Multi-Tau Duration (s):	120
Echo Duration (s):	60
Wavelength (nm):	685.0
Temperature (°C):	35.01
Cuvette Thickness (mm):	10.00
Absorption Length (mm):	Inf
Solvent:	Water
Solvent Refractive Index:	1.329
Particle Radius (nm):	465.0
Mean Count Rate (kHz):	174.1
l* (microns):	993.51



Lag Time (s)	Mean Square Displacement (micron^2)	Fit Lag Time (s)	Mean Square Displacement Fit (micron^2)	Frequency(rad/s)	G1 (Pa)	G2 (Pa)	G* (Pa)	Complex Viscosity (Pa s)	Loss Tangent (-)	Time (s)	Creep Compliance (1/Pa)

7.212500E-6	2.835359E-6	7.212565E-6	2.790246E-6	0.238202	-0.395433	2.483521	2.514805	10.557429	-6.280514	7.212500E-6	0.000974
8.012500E-6	3.021258E-6	7.946416E-6	2.962846E-6	0.262437	-0.486449	2.748649	2.791362	10.636317	-5.650435	8.012500E-6	0.001037
8.812500E-6	3.194845E-6	8.754840E-6	3.139310E-6	0.289140	-0.579334	3.050388	3.104915	10.738432	-5.265335	8.812500E-6	0.001097
9.612500E-6	3.356058E-6	9.645612E-6	3.319573E-6	0.318559	-0.672885	3.393776	3.459839	10.860907	-5.043621	9.612500E-6	0.001152
1.041250E-5	3.506800E-6	1.062701E-5	3.503527E-6	0.350967	-0.765410	3.784383	3.861011	11.001080	-4.944256	1.041250E-5	0.001204
1.121250E-5	3.584533E-6	1.170816E-5	3.691079E-6	0.386675	-0.854581	4.228112	4.313611	11.155647	-4.947585	1.121250E-5	0.001231
1.201250E-5	3.750837E-6	1.289946E-5	3.882207E-6	0.426018	-0.937330	4.731181	4.823138	11.321432	-5.047510	1.201250E-5	0.001288
1.281250E-5	3.940634E-6	1.421171E-5	4.076800E-6	0.469359	-1.009804	5.300410	5.395743	11.495994	-5.248952	1.281250E-5	0.001353
1.441250E-5	4.147265E-6	1.565783E-5	4.274900E-6	0.517119	-1.067127	5.942467	6.037522	11.675299	-5.568661	1.441250E-5	0.001424
1.601250E-5	4.249352E-6	1.725072E-5	4.476380E-6	0.569730	-1.103438	6.664448	6.755179	11.856803	-6.039714	1.601250E-5	0.001459
1.761250E-5	4.367539E-6	1.900598E-5	4.681294E-6	0.627693	-1.111702	7.473412	7.555645	12.037161	-6.722498	1.761250E-5	0.001500
1.921250E-5	4.498740E-6	2.093970E-5	4.889571E-6	0.691557	-1.083647	8.376161	8.445967	12.212969	-7.729601	1.921250E-5	0.001545
2.081250E-5	4.631258E-6	2.307008E-5	5.101198E-6	0.761920	-1.009732	9.379005	9.433201	12.380827	-9.288609	2.081250E-5	0.001590
2.241250E-5	4.802634E-6	2.541734E-5	5.316176E-6	0.839433	-0.879132	10.487981	10.524762	12.537943	-11.929931	2.241250E-5	0.001649
2.401250E-5	5.020976E-6	2.800315E-5	5.534455E-6	0.924842	-0.679692	11.707943	11.727656	12.680708	-17.225354	2.401250E-5	0.001724
2.561250E-5	5.290468E-6	3.085247E-5	5.756068E-6	1.018944	-0.398113	13.042469	13.048543	12.805948	-32.760738	2.561250E-5	0.001817
2.881250E-5	5.541082E-6	3.399140E-5	5.980938E-6	1.122604	-0.019990	14.494173	14.494187	12.911224	-725.069264	2.881250E-5	0.001903
3.201250E-5	5.840421E-6	3.744977E-5	6.209061E-6	1.236816	0.470071	16.063827	16.070703	12.993605	34.173218	3.201250E-5	0.002005
3.521250E-5	6.069336E-6	4.125987E-5	6.440387E-6	1.362663	1.088072	17.749970	17.783288	13.050389	16.313226	3.521250E-5	0.002084
3.841250E-5	6.260788E-6	4.545774E-5	6.674887E-6	1.501313	1.850330	19.549015	19.636387	13.079478	10.565149	3.841250E-5	0.002150
4.161250E-5	6.474886E-6	5.008311E-5	6.912518E-6	1.654055	2.773237	21.455225	21.633713	13.079195	7.736528	4.161250E-5	0.002223
4.481250E-5	6.694062E-6	5.517887E-5	7.153185E-6	1.822333	3.872913	23.460475	23.778001	13.048108	6.057579	4.481250E-5	0.002298
4.801250E-5	6.911686E-6	6.079285E-5	7.396808E-6	2.007744	5.164628	25.553805	26.070488	12.984965	4.947850	4.801250E-5	0.002373
5.121250E-5	7.133697E-6	6.697773E-5	7.643299E-6	2.212021	6.662281	27.721645	28.510973	12.889103	4.160984	5.121250E-5	0.002449
5.761250E-5	7.387698E-6	7.379248E-5	7.892586E-6	2.437062	8.378404	29.948747	31.098636	12.760707	3.574517	5.761250E-5	0.002537
6.401250E-5	7.655539E-6	8.129937E-5	8.144489E-6	2.685039	10.322969	32.216384	33.829855	12.599392	3.120845	6.401250E-5	0.002629
7.041250E-5	7.898849E-6	8.957197E-5	8.398974E-6	2.958202	12.503769	34.505223	36.700881	12.406483	2.759586	7.041250E-5	0.002712
7.681250E-5	8.124741E-6	9.868451E-5	8.655787E-6	3.259184	14.925435	36.793238	39.705302	12.182590	2.465137	7.681250E-5	0.002790
8.321250E-5	8.346241E-6	0.000109	8.914819E-6	3.590751	17.590054	39.058633	42.836746	11.929747	2.220495	8.321250E-5	0.002866
8.961250E-5	8.518181E-6	0.000120	9.175947E-6	3.956136	20.495425	41.277043	46.085320	11.649074	2.013964	8.961250E-5	0.002925
9.601250E-5	8.733049E-6	0.000132	9.438867E-6	4.358632	23.636247	43.425462	49.441307	11.343308	1.837240	9.601250E-5	0.002999
0.000102	8.985720E-6	0.000145	9.703445E-6	4.802061	27.004227	45.481126	52.893867	11.014826	1.684222	0.000102	0.003085
0.000115	9.234427E-6	0.000160	9.969469E-6	5.290646	30.586967	47.421480	56.430127	10.666019	1.550382	0.000115	0.003171
0.000128	9.508208E-6	0.000176	1.023671E-5	5.828883	34.369680	49.226563	60.037733	10.300040	1.432267	0.000128	0.003265
0.000141	9.766233E-6	0.000194	1.050495E-5	6.421951	38.334152	50.877347	63.702525	9.919497	1.327207	0.000141	0.003353
0.000154	9.984441E-6	0.000214	1.077390E-5	7.075355	42.459406	52.357522	67.410023	9.527441	1.233120	0.000154	0.003428
0.000166	1.019651E-5	0.000236	1.104336E-5	7.795164	46.723578	53.654261	71.146837	9.127049	1.148334	0.000166	0.003501
0.000179	1.038965E-5	0.000260	1.131303E-5	8.588337	51.101977	54.756422	74.897782	8.720871	1.071513	0.000179	0.003567
0.000192	1.057307E-5	0.000287	1.158271E-5	9.462146	55.569280	55.657047	78.648915	8.311953	1.001579	0.000192	0.003630
0.000205	1.079215E-5	0.000316	1.185216E-5	10.424813	60.100206	56.352340	82.387019	7.902973	0.937640	0.000205	0.003706
0.000230	1.103096E-5	0.000348	1.212109E-5	11.485479	64.669215	56.841487	86.099141	7.496348	0.878957	0.000230	0.003788
0.000256	1.128566E-5	0.000383	1.238926E-5	12.654114	69.250593	57.126736	89.772539	7.094336	0.824928	0.000256	0.003875
0.000282	1.154619E-5	0.000422	1.265646E-5	13.941473	73.820691	57.214006	93.396665	6.699196	0.775040	0.000282	0.003964
0.000307	1.176645E-5	0.000465	1.292251E-5	15.359808	78.357415	57.111508	96.961894	6.312702	0.728859	0.000307	0.004040
0.000333	1.196408E-5	0.000512	1.318714E-5	16.922589	82.839761	56.829774	100.459192	5.936396	0.686020	0.000333	0.004108
0.000358	1.214080E-5	0.000565	1.345022E-5	18.644386	87.249131	56.381822	103.881282	5.571719	0.646216	0.000358	0.004169
0.000384	1.232144E-5	0.000622	1.371150E-5	20.541451	91.568498	55.782164	107.221452	5.219760	0.609185	0.000384	0.004231
0.000410	1.252397E-5	0.000685	1.397097E-5	22.631220	95.784571	55.047285	110.475733	4.881563	0.574699	0.000410	0.004300
0.000461	1.276346E-5	0.000755	1.422845E-5	24.933710	99.886349	54.194114	113.641034	4.557727	0.542558	0.000461	0.004382
0.000512	1.301059E-5	0.000832	1.448386E-5	27.470760	103.864008	53.240293	116.714441	4.248679	0.512596	0.000512	0.004467
0.000563	1.326409E-5	0.000916	1.473721E-5	30.265465	107.712167	52.204490	119.696364	3.954883	0.484667	0.000563	0.004554
0.000614	1.347526E-5	0.001010	1.498847E-5	33.344962	111.426374	51.104505	122.586734	3.676319	0.458639	0.000614	0.004627
0.000666	1.367267E-5	0.001112	1.523764E-5	36.737637	115.004935	49.958605	125.387389	3.413050	0.434404	0.000666	0.004695
0.000717	1.384636E-5	0.001226	1.548486E-5	40.475430	118.448144	48.784310	128.101021	3.164908	0.411862	0.000717	0.004754
0.000768	1.403694E-5	0.001350	1.573021E-5	44.593282	121.758565	47.598552	130.731673	2.931645	0.390926	0.000768	0.004820
0.000819	1.425075E-5	0.001488	1.597391E-5	49.130243	124.940000	46.417288	133.283788	2.712866	0.371517	0.000819	0.004893
0.000922	1.450093E-5	0.001639	1.621621E-5	54.128653	127.997980	45.255702	135.762887	2.508152	0.353566	0.000922	0.004979
0.001024	1.476922E-5	0.001806	1.645734E-5	59.635660	130.939300	44.127834	138.175128	2.316988	0.337010	0.001024	0.005071
0.001126	1.504133E-5	0.001989	1.669767E-5	65.703255	133.771709	43.046651	140.527166	2.138816	0.321792	0.001126	0.005165
0.001229	1.527633E-5	0.002192	1.693758E-5	72.388618	136.503103	42.024064	142.825485	1.973038	0.307862	0.001229	0.005245
0.001331	1.548774E-5	0.002415	1.717757E-5	79.752849	139.143417	41.071039	145.078326	1.819099	0.295171	0.001331	0.005318
0.001434	1.566603E-5	0.002661	1.741816E-5	87.867240	141.702144	40.197045	147.293245	1.676316	0.283673	0.001434	0.005379
0.001536	1.584335E-5	0.002931	1.765994E-5	96.807577	144.189164	39.410830	149.478187	1.544075	0.273327	0.001536	0.005440
0.001638	1.605308E-5	0.003229	1.790359E-5	106.657706	146.614253	38.720100	151.640976	1.421754	0.264095	0.001638	0.005512
0.001843	1.629880E-5	0.003558	1.814984E-5	117.508596	148.988214	38.131701	153.790490	1.308759	0.255938	0.001843	0.005596
0.002048	1.657830E-5	0.003920	1.839955E-5	129.465059	151.320620	37.651392	155.934465	1.204452	0.248819	0.002048	0.005692
0.002253	1.685411E-5	0.004319	1.865353E-5	142.636545	153.621626	37.284443	158.081414	1.108281	0.242703	0.002253	0.005787
0.002458	1.710059E-5	0.004758	1.891278E-5	157.147562	155.901445	37.035293	160.240050	1.019679	0.237556	0.002458	0.005872
0.002662	1.733601E-5	0.005242	1.917841E-5	173.137351	158.168947	36.907677	162.417956	0.938087	0.233343	0.002662	0.005952
0.002867	1.753915E-5	0.005776	1.945151E-5	190.751402	160.433967	36.905061	164.623939	0.863029	0.230033	0.002867	0.006022
0.003072	1.775375E-5	0.006363	1.973340E-5	210.159861	162.704883	37.030158	166.865550	0.793993	0.227591	0.003072	0.006096
0.003277	1.800188E-5	0.007011	2.002534E-5	231.540164	164.990767	37.285549	169.151309	0.730548	0.225986	0.003277	0.006181
0.003686	1.828472E-5	0.007724	2.032883E-5	255.097499	167.300057	37.673398	171.489340	0.672250	0.225185	0.003686	0.006278
0.004096	1.859761E-5	0.008510	2.064549E-5	281.055500	169.640091	38.195496	173.886907	0.618692	0.225156	0.004096	0.006386
0.004506	1.891363E-5	0.009376	2.097692E-5	309.650973	172.018753	38.853586	176.352070	0.569519	0.225868	0.004506	0.006494
0.004915	1.917484E-5	0.010330	2.132503E-5	341.154825	174.443434	39.649223	178.892628	0.524374	0.227290	0.004915	0.006584
0.005325	1.941118E-5	0.011381	2.169177E-5	375.863058	176.921463	40.583949	181.516558	0.482933	0.229390	0.005325	0.006665
0.005734	1.960070E-5	0.012539	2.207924E-5	414.105149	179.459427	41.659136	184.231293	0.444890	0.232137	0.005734	0.006730
0.006144	1.979666E-5	0.013814	2.248971E-5	456.235863	182.064037	42.876204	187.044600	0.409973	0.235501	0.006144	0.006797
0.006554	2.003514E-5	0.015220	2.292581E-5	502.651054	184.742125	44.236764	189.964587	0.377925	0.239451	0.006554	0.006879
0.007373	2.031939E-5	0.016768	2.339014E-5	553.792958	187.499777	45.742340	192.998777	0.348503	0.243959	0.007373	0.006977
0.008192	2.065337E-5	0.018475	2.388563E-5	610.136742	190.343744	47.394794	196.155570	0.321494	0.248996	0.008192	0.007091
0.009011	2.101666E-5	0.020354	2.441549E-5	672.222387	193.279377	49.195716	199.442062	0.296691	0.254532	0.009011	0.007216
0.009830	2.136049E-5	0.022425	2.498323E-5	740.613913	196.313211	51.147132	202.866720	0.273917	0.260538	0.009830	0.007334
0.010650	2.170891E-5	0.024706	2.559259E-5	815.959984	199.451845	53.251570	206.438291	0.253001	0.266990	0.010650	0.007454
0.011469	2.200709E-5	0.027220	2.624778E-5	898.979026	202.701041	55.511451	210.164776	0.233782	0.273859	0.011469	0.007556
0.012288	2.230598E-5	0.029990	2.695334E-5	990.438383	206.067814	57.929872	214.055633	0.216122	0.281120	0.012288	0.007659
0.013107	2.264874E-5	0.033041	2.771427E-5	1091.217288	209.557955	60.509881	218.119193	0.199886	0.288750	0.013107	0.007777
0.014746	2.304300E-5	0.036402	2.853590E-5	1202.244747	213.177853	63.254805	222.364492	0.184958	0.296723	0.014746	0.007912
0.016384	2.348904E-5	0.040106	2.942456E-5	1324.555204	216.934897	66.168930	226.801845	0.171229	0.305017	0.016384	0.008065
0.018022	2.397676E-5	0.044187	3.038665E-5	1459.318654	220.836024	69.256902	231.441284	0.158595	0.313612	0.018022	0.008233
0.019661	2.445421E-5	0.048682	3.142963E-5	1607.803590	224.887249	72.523087	236.291923	0.146966	0.322486	0.019661	0.008396
0.021299	2.496967E-5	0.053635	3.256188E-5	1771.358442	229.097909	75.973837	241.366683	0.136261	0.331622	0.021299	0.008573
0.022938	2.541664E-5	0.059093	3.379230E-5	1951.594030	233.474335	79.615106	246.675557	0.126397	0.341002	0.022938	0.008727
0.024576	2.588312E-5	0.065105	3.513101E-5	2150.152214	238.025378	83.454007	252.231346	0.117309	0.350610	0.024576	0.008887
0.026214	2.641213E-5	0.071728	3.658915E-5	2368.933920	242.758266	87.497851	258.045441	0.108929	0.360432	0.026214	0.009069
0.029491	2.703686E-5	0.079026	3.817938E-5	2609.944953	247.682216	91.755319	264.131632	0.101202	0.370456	0.029491	0.009283
0.032768	2.777330E-5	0.087066	3.991597E-5	2875.471865	252.806662	96.236430	270.504453	0.094073	0.380672	0.032768	0.009536
0.036045	2.859632E-5	0.095925	4.181434E-5	3168.035888	258.140706	100.951866	277.178469	0.087492	0.391073	0.036045	0.009819
0.039322	2.936367E-5	0.105684	4.389203E-5	3490.376883	263.693486	105.913123	284.168690	0.081415	0.401652	0.039322	0.010082
0.042598	3.014518E-5	0.116437	4.616900E-5	3845.487869	269.475048	111.133273	291.491691	0.075801	0.412407	0.042598	0.010351
0.045875	3.076391E-5	0.128285	4.866753E-5	4236.695385	275.497282	116.628011	299.166919	0.070613	0.423336	0.045875	0.010563
0.049152	3.144274E-5	0.141336	5.141195E-5	4667.770860	281.769320	122.413083	307.211511	0.065815	0.434444	0.049152	0.010796
0.052429	3.229854E-5	0.155716	5.443106E-5	5142.657357	288.304146	128.507638	315.647736	0.061378	0.445736	0.052429	0.011090
0.058982	3.338151E-5	0.171559	5.775633E-5	5665.941351	295.111368	134.931311	324.495267	0.057271	0.457222	0.058982	0.011462
0.065536	3.468440E-5	0.189013	6.142304E-5	6242.405124	302.203696	141.707064	333.778318	0.053470	0.468912	0.065536	0.011909
0.072090	3.612316E-5	0.208244	6.547239E-5	6877.517868	309.592910	148.860347	343.521721	0.049949	0.480826	0.072090	0.012403
0.078643	3.748079E-5	0.229430	6.994932E-5	7577.219473	317.291487	156.419639	353.752726	0.046686	0.492984	0.078643	0.012869
0.085197	3.893793E-5	0.252772	7.490599E-5	8348.086780	325.314115	164.418374	364.503326	0.043663	0.505414	0.085197	0.013370
0.091750	4.013524E-5	0.278493	8.040171E-5	9197.578300	333.669495	172.889830	375.800779	0.040859	0.518147	0.091750	0.013781
0.098304	4.142282E-5	0.306825	8.650053E-5	10133.302072	342.372290	181.874289	387.681624	0.038258	0.531218	0.098304	0.014223
0.104858	4.307185E-5	0.338043	9.327952E-5	11164.207005	351.436882	191.418226	400.185981	0.035845	0.544673	0.104858	0.014789
0.117965	4.519675E-5	0.372434	0.000101	12300.217801	360.871116	201.568685	413.349607	0.033605	0.558561	0.117965	0.015519
0.131072	4.782601E-5	0.410330	0.000109	13551.517012	370.691032	212.383830	427.222111	0.031526	0.572940	0.131072	0.016421
0.144179	5.079774E-5	0.452075	0.000119	14930.335948	380.904577	223.924980	441.849176	0.029594	0.587877	0.144179	0.017442
0.157286	4.990431E-5	0.498071	0.000129	16449.303627	391.523249	236.262974	457.286176	0.027800	0.603446	0.157286	0.017135
0.170394	5.925374E-5	0.548747	0.000141	18122.880481	402.555215	249.476848	473.592017	0.026132	0.619733	0.170394	0.020345
0.183501	7.396422E-5	0.604575	0.000154	19966.812043	414.006763	263.654965	490.831479	0.024582	0.636837	0.183501	0.025396
0.399815	9.502228E-5	0.666084	0.000169	21998.455402	425.879657	278.894713	509.073416	0.023141	0.654867	0.399815	0.032626
0.599722	0.000153	0.733857	0.000185	24236.626615	438.174637	295.307098	528.396910	0.021802	0.673948	0.599722	0.052479
0.799630	0.000203	0.808527	0.000203	26702.434550	450.887893	313.017378	548.889580	0.020556	0.694224	0.799630	0.069672
0.999537	0.000254	0.890786	0.000224	29419.202521	464.008104	332.164305	570.645815	0.019397	0.715859	0.999537	0.087241
1.199450	0.000308	0.981408	0.000247	32412.312701	477.519452	352.905772	593.773788	0.018319	0.739040	1.199450	0.105626
1.399350	0.000363	1.081265	0.000274	35710.263478	491.390763	375.412869	618.384755	0.017317	0.763980	1.399350	0.124600
1.599260	0.000420	1.191280	0.000303	39343.218801	505.588326	399.884915	644.614226	0.016384	0.790930	1.599260	0.144312
1.799170	0.000480	1.312474	0.000336	43346.191936	520.055899	426.538889	672.602083	0.015517	0.820179	1.799170	0.164927
1.999070	0.000543	1.446012	0.000373	47756.187140	534.725159	455.620960	702.510822	0.014710	0.852066	1.999070	0.186503
2.198980	0.000600	1.593135	0.000415	52615.022744	549.504388	487.406475	734.520349	0.013960	0.886993	2.198980	0.206129
2.398890	0.000657	1.755217	0.000462	57968.580866	564.270273	522.195041	768.822867	0.013263	0.925434	2.398890	0.225637
2.598800	0.000724	1.933790	0.000514	63865.794830	578.882769	560.339888	805.658767	0.012615	0.967968	2.598800	0.248599
2.798700	0.000784	2.130567	0.000573	70364.499372	593.143125	602.213372	845.269017	0.012013	1.015292	2.798700	0.269078
2.998610	0.000849	2.347317	0.000639	77522.627253	606.836110	648.263761	887.972955	0.011454	1.068268	2.998610	0.291358
3.198520	0.000916	2.586151	0.000713	85410.483651	619.678834	698.984961	934.120888	0.010937	1.127979	3.198520	0.314570
3.398430	0.000990	2.849274	0.000795	94099.814945	631.361407	754.977726	984.179147	0.010459	1.195793	3.398430	0.340013
3.598330	0.001022	3.139136	0.000887	103674.085634	641.524469	816.972341	1038.748021	0.010019	1.273486	3.598330	0.351066
3.798240	0.001072	3.458527	0.000988	114222.531858	649.789403	885.912632	1098.666218	0.009619	1.363384	3.798240	0.368178
3.998150	0.001124	3.810440	0.001101	125842.887870	655.788285	963.117514	1165.183943	0.009259	1.468641	3.998150	0.385907
