MicroRheology Analysis v9.2.8
08/22/18 4:41:03 PM

Correlation Mode:	Cross
Geometry:	Transmission
Multi-Tau Duration (s):	120
Echo Duration (s):	60
Wavelength (nm):	685.0
Temperature (°C):	25.00
Cuvette Thickness (mm):	10.00
Absorption Length (mm):	Inf
Solvent:	Water
Solvent Refractive Index:	1.329
Particle Radius (nm):	465.0
Mean Count Rate (kHz):	164.1
l* (microns):	961.83



Lag Time (s)	Mean Square Displacement (micron^2)	Fit Lag Time (s)	Mean Square Displacement Fit (micron^2)	Frequency(rad/s)	G1 (Pa)	G2 (Pa)	G* (Pa)	Complex Viscosity (Pa s)	Loss Tangent (-)	Time (s)	Creep Compliance (1/Pa)

1.281250E-5	4.179775E-6	1.281268E-5	4.131830E-6	0.079402	0.043813	8.271026	8.271142	104.168556	188.781418	1.281250E-5	0.001483
1.441250E-5	4.566142E-6	1.388288E-5	4.370390E-6	0.086034	0.276633	9.002860	9.007110	104.692578	32.544428	1.441250E-5	0.001620
1.601250E-5	4.905368E-6	1.504254E-5	4.615380E-6	0.093219	0.553841	9.779203	9.794874	105.073858	17.657052	1.601250E-5	0.001741
1.761250E-5	5.197254E-6	1.629900E-5	4.866597E-6	0.101005	0.879972	10.599717	10.636181	105.303007	12.045509	1.761250E-5	0.001844
1.921250E-5	5.416298E-6	1.766024E-5	5.123828E-6	0.109443	1.259556	11.463506	11.532495	105.374147	9.101225	1.921250E-5	0.001922
2.081250E-5	5.692843E-6	1.913558E-5	5.386977E-6	0.118585	1.697187	12.369453	12.485343	105.286006	7.288208	2.081250E-5	0.002020
2.241250E-5	5.827417E-6	2.073394E-5	5.655732E-6	0.128490	2.197413	13.315731	13.495826	105.033779	6.059730	2.241250E-5	0.002068
2.401250E-5	6.094556E-6	2.246578E-5	5.929911E-6	0.139221	2.764805	14.300431	14.565249	104.619392	5.172311	2.401250E-5	0.002163
2.561250E-5	6.353621E-6	2.434233E-5	6.209308E-6	0.150850	3.403788	15.320814	15.694366	104.039373	4.501106	2.561250E-5	0.002255
2.881250E-5	6.747011E-6	2.637567E-5	6.493696E-6	0.163452	4.118422	16.373424	16.883436	103.293013	3.975655	2.881250E-5	0.002394
3.201250E-5	7.004355E-6	2.857842E-5	6.782784E-6	0.177104	4.912572	17.454623	18.132767	102.384633	3.553052	3.201250E-5	0.002486
3.521250E-5	7.368913E-6	3.096570E-5	7.076463E-6	0.191897	5.789864	18.560278	19.442388	101.316927	3.205650	3.521250E-5	0.002615
3.841250E-5	7.626525E-6	3.355218E-5	7.374402E-6	0.207926	6.753547	19.685783	20.812026	100.093567	2.914880	3.841250E-5	0.002707
4.161250E-5	7.990324E-6	3.635490E-5	7.676407E-6	0.225296	7.806060	20.825512	22.240426	98.716252	2.667865	4.161250E-5	0.002836
4.481250E-5	8.308996E-6	3.939160E-5	7.982201E-6	0.244114	8.949658	21.974300	23.726909	97.196027	2.455323	4.481250E-5	0.002949
4.801250E-5	8.716735E-6	4.268148E-5	8.291507E-6	0.264505	10.185778	23.125880	25.269673	95.535721	2.270409	4.801250E-5	0.003093
5.121250E-5	8.987505E-6	4.624714E-5	8.604204E-6	0.286595	11.515766	24.274714	26.867724	93.748021	2.107955	5.121250E-5	0.003190
5.761250E-5	9.404436E-6	5.010950E-5	8.919867E-6	0.310539	12.939522	25.413540	28.518051	91.834081	1.964025	5.761250E-5	0.003337
6.401250E-5	9.821078E-6	5.429509E-5	9.238382E-6	0.336476	14.456557	26.536041	30.218430	89.808458	1.835571	6.401250E-5	0.003485
7.041250E-5	1.030603E-5	5.883056E-5	9.559466E-6	0.364578	16.066115	27.635837	31.966538	87.680862	1.720132	7.041250E-5	0.003657
7.681250E-5	1.073411E-5	6.374467E-5	9.882833E-6	0.395034	17.766097	28.705781	33.758792	85.458014	1.615762	7.681250E-5	0.003809
8.321250E-5	1.115038E-5	6.906884E-5	1.020822E-5	0.428030	19.553924	29.739421	35.591981	83.152985	1.520893	8.321250E-5	0.003957
8.961250E-5	1.143830E-5	7.483866E-5	1.053544E-5	0.463784	21.426247	30.730161	37.462339	80.775483	1.434230	8.961250E-5	0.004059
9.601250E-5	1.177688E-5	8.108971E-5	1.086415E-5	0.502522	23.379148	31.671839	39.366101	78.337053	1.354705	9.601250E-5	0.004179
0.000102	1.206645E-5	8.786261E-5	1.119411E-5	0.544499	25.407753	32.558277	41.298854	75.847488	1.281431	0.000102	0.004282
0.000115	1.242303E-5	9.520238E-5	1.152514E-5	0.589977	27.506876	33.384071	43.256496	73.318976	1.213663	0.000115	0.004409
0.000128	1.281871E-5	0.000103	1.185685E-5	0.639255	29.670887	34.144141	45.234764	70.761744	1.150762	0.000128	0.004549
0.000141	1.325167E-5	0.000112	1.218911E-5	0.692655	31.893011	34.833497	47.228558	68.184785	1.092198	0.000141	0.004703
0.000154	1.362337E-5	0.000121	1.252161E-5	0.750509	34.166512	35.448281	49.233436	65.600022	1.037515	0.000154	0.004835
0.000166	1.402272E-5	0.000131	1.285408E-5	0.813196	36.484377	35.985007	51.244810	63.016578	0.986313	0.000166	0.004976
0.000179	1.431695E-5	0.000142	1.318625E-5	0.881123	38.839151	36.440758	53.257943	60.443269	0.938248	0.000179	0.005081
0.000192	1.463478E-5	0.000154	1.351795E-5	0.954730	41.222426	36.812996	55.267396	57.888009	0.893033	0.000192	0.005194
0.000205	1.499289E-5	0.000167	1.384878E-5	1.034462	43.627307	37.100862	57.269677	55.361808	0.850405	0.000205	0.005321
0.000230	1.533893E-5	0.000181	1.417869E-5	1.120879	46.045426	37.302872	59.259476	52.868747	0.810132	0.000230	0.005444
0.000256	1.570664E-5	0.000196	1.450722E-5	1.214508	48.468814	37.419066	61.232446	50.417481	0.772024	0.000256	0.005574
0.000282	1.611961E-5	0.000212	1.483424E-5	1.315955	50.889599	37.449868	63.184206	48.013972	0.735904	0.000282	0.005721
0.000307	1.641345E-5	0.000230	1.515945E-5	1.425864	53.300754	37.396600	65.111259	45.664421	0.701615	0.000307	0.005825
0.000333	1.671490E-5	0.000249	1.548266E-5	1.544978	55.694347	37.260604	67.009051	43.372169	0.669019	0.000333	0.005932
0.000358	1.697547E-5	0.000270	1.580364E-5	1.674023	58.063449	37.044466	68.874208	41.142929	0.638000	0.000358	0.006024
0.000384	1.722205E-5	0.000293	1.612205E-5	1.813843	60.401773	36.751007	70.703683	38.980050	0.608443	0.000384	0.006112
0.000410	1.753665E-5	0.000317	1.643776E-5	1.965363	62.702672	36.383348	72.493952	36.885792	0.580252	0.000410	0.006223
0.000461	1.788518E-5	0.000344	1.675048E-5	2.129524	64.960376	35.945416	74.242329	34.863339	0.553344	0.000461	0.006347
0.000512	1.819877E-5	0.000372	1.706003E-5	2.307391	67.169626	35.441323	75.946337	32.914378	0.527639	0.000512	0.006458
0.000563	1.852325E-5	0.000403	1.736618E-5	2.500107	69.325915	34.875554	77.604039	31.040291	0.503067	0.000563	0.006574
0.000614	1.878854E-5	0.000437	1.766869E-5	2.708940	71.425086	34.252740	79.213592	29.241550	0.479562	0.000614	0.006668
0.000666	1.902484E-5	0.000474	1.796745E-5	2.935243	73.462793	33.577788	80.772829	27.518275	0.457072	0.000666	0.006752
0.000717	1.926150E-5	0.000513	1.826213E-5	3.180390	75.436403	32.856083	82.281062	25.871377	0.435547	0.000717	0.006836
0.000768	1.950321E-5	0.000556	1.855268E-5	3.446027	77.343707	32.092618	83.737597	24.299748	0.414935	0.000768	0.006921
0.000819	1.976348E-5	0.000603	1.883878E-5	3.733914	79.181900	31.292580	85.141053	22.802090	0.395199	0.000819	0.007014
0.000922	2.006222E-5	0.000653	1.912036E-5	4.045767	80.950167	30.461544	86.491822	21.378350	0.376300	0.000922	0.007120
0.001024	2.036984E-5	0.000707	1.939723E-5	4.383726	82.647290	29.604474	87.789518	20.026235	0.358203	0.001024	0.007229
0.001126	2.065522E-5	0.000766	1.966920E-5	4.749899	84.272781	28.726681	89.034397	18.744482	0.340877	0.001126	0.007330
0.001229	2.089082E-5	0.000830	1.993620E-5	5.146643	85.826869	27.833191	90.227146	17.531263	0.324295	0.001229	0.007414
0.001331	2.113163E-5	0.000900	2.019803E-5	5.576567	87.309574	26.928881	91.368082	16.384289	0.308430	0.001331	0.007499
0.001434	2.134454E-5	0.000975	2.045463E-5	6.042302	88.722380	26.018577	92.458786	15.301914	0.293258	0.001434	0.007575
0.001536	2.156393E-5	0.001056	2.070590E-5	6.547060	90.066001	25.106621	93.499877	14.281200	0.278758	0.001536	0.007653
0.001638	2.180545E-5	0.001145	2.095170E-5	7.093885	91.342377	24.197509	94.493118	13.320361	0.264910	0.001638	0.007738
0.001843	2.205844E-5	0.001240	2.119197E-5	7.686461	92.553109	23.295204	95.439742	12.416604	0.251696	0.001843	0.007828
0.002048	2.230557E-5	0.001344	2.142667E-5	8.328457	93.700546	22.403639	96.341659	11.567769	0.239098	0.002048	0.007916
0.002253	2.257905E-5	0.001456	2.165573E-5	9.024110	94.787070	21.526306	97.200672	10.771219	0.227102	0.002253	0.008013
0.002458	2.285182E-5	0.001578	2.187909E-5	9.777893	95.815294	20.666542	98.018756	10.024528	0.215691	0.002458	0.008110
0.002662	2.310829E-5	0.001710	2.209679E-5	10.594676	96.787869	19.827444	98.797870	9.325238	0.204855	0.002662	0.008201
0.002867	2.333500E-5	0.001852	2.230884E-5	11.479625	97.707746	19.011871	99.540217	8.671034	0.194579	0.002867	0.008281
0.003072	2.355647E-5	0.002007	2.251516E-5	12.438462	98.577982	18.222353	100.248056	8.059522	0.184852	0.003072	0.008360
0.003277	2.376810E-5	0.002175	2.271588E-5	13.477387	99.401764	17.461168	100.923749	7.488377	0.175663	0.003277	0.008435
0.003686	2.401921E-5	0.002356	2.291099E-5	14.603184	100.182129	16.730400	101.569510	6.955299	0.167000	0.003686	0.008524
0.004096	2.429734E-5	0.002553	2.310056E-5	15.822941	100.922309	16.031954	102.187748	6.458202	0.158854	0.004096	0.008623
0.004506	2.455595E-5	0.002767	2.328466E-5	17.144536	101.625691	15.367393	102.781019	5.994972	0.151216	0.004506	0.008714
0.004915	2.476024E-5	0.002998	2.346346E-5	18.576774	102.295187	14.738170	103.351434	5.563476	0.144075	0.004915	0.008787
0.005325	2.495221E-5	0.003248	2.363703E-5	20.128307	102.934342	14.145549	103.901758	5.161972	0.137423	0.005325	0.008855
0.005734	2.510415E-5	0.003519	2.380547E-5	21.809855	103.545999	13.590532	104.434077	4.788389	0.131251	0.005734	0.008909
0.006144	2.527208E-5	0.003813	2.396902E-5	23.631504	104.133425	13.074102	104.950952	4.441146	0.125551	0.006144	0.008969
0.006554	2.543881E-5	0.004132	2.412778E-5	25.605344	104.699691	12.596924	105.454766	4.118467	0.120315	0.006554	0.009028
0.007373	2.559777E-5	0.004477	2.428198E-5	27.744133	105.247702	12.159619	105.947794	3.818746	0.115533	0.007373	0.009084
0.008192	2.571608E-5	0.004851	2.443181E-5	30.061350	105.780550	11.762647	106.432536	3.540511	0.111199	0.008192	0.009126
0.009011	2.577664E-5	0.005256	2.457750E-5	32.572614	106.300810	11.406378	106.911026	3.282237	0.107303	0.009011	0.009148
0.009830	2.577952E-5	0.005695	2.471930E-5	35.292986	106.811504	11.091102	107.385800	3.042695	0.103838	0.009830	0.009149
0.010650	2.577684E-5	0.006171	2.485748E-5	38.241268	107.315151	10.816950	107.858927	2.820485	0.100796	0.010650	0.009148
0.011469	2.578058E-5	0.006686	2.499231E-5	41.435769	107.814226	10.584093	108.332499	2.614468	0.098170	0.011469	0.009149
0.012288	2.578531E-5	0.007245	2.512409E-5	44.896377	108.311369	10.392569	108.808815	2.423554	0.095951	0.012288	0.009151
0.013107	2.574985E-5	0.007850	2.525318E-5	48.646355	108.809006	10.242338	109.290005	2.246623	0.094131	0.013107	0.009138
0.014746	2.563873E-5	0.008506	2.537985E-5	52.710173	109.309270	10.133373	109.777966	2.082671	0.092704	0.014746	0.009099
0.016384	2.553716E-5	0.009216	2.550448E-5	57.112648	109.814581	10.065619	110.274924	1.930832	0.091660	0.016384	0.009063
0.018022	2.556475E-5	0.009986	2.562745E-5	61.883838	110.326857	10.038960	110.782653	1.790171	0.090993	0.018022	0.009072
0.019661	2.583705E-5	0.010820	2.574915E-5	67.052432	110.848309	10.053311	111.303265	1.659944	0.090694	0.019661	0.009169
0.021299	2.634740E-5	0.011724	2.586999E-5	72.653201	111.380877	10.108551	111.838645	1.539349	0.090757	0.021299	0.009350
0.022938	2.695237E-5	0.012703	2.599039E-5	78.721834	111.926465	10.204583	112.390690	1.427694	0.091172	0.022938	0.009565
0.024576	2.738626E-5	0.013764	2.611081E-5	85.297401	112.486886	10.341309	112.961242	1.324322	0.091933	0.024576	0.009719
0.026214	2.743703E-5	0.014914	2.623170E-5	92.421875	113.063942	10.518658	113.552178	1.228629	0.093033	0.026214	0.009737
0.029491	2.723496E-5	0.016159	2.635354E-5	100.141466	113.659346	10.736585	114.165324	1.140040	0.094463	0.029491	0.009665
0.032768	2.710033E-5	0.017509	2.647687E-5	108.505810	114.274784	10.995082	114.802518	1.058031	0.096216	0.032768	0.009617
0.036045	2.726233E-5	0.018972	2.660215E-5	117.569143	114.911851	11.294171	115.465543	0.982108	0.098286	0.036045	0.009675
0.039322	2.777298E-5	0.020557	2.672998E-5	127.389490	115.572226	11.633955	116.156310	0.911820	0.100664	0.039322	0.009856
0.042598	2.823682E-5	0.022274	2.686088E-5	138.032110	116.257220	12.014501	116.876386	0.846733	0.103344	0.042598	0.010021
0.045875	2.829258E-5	0.024134	2.699544E-5	149.561450	116.968463	12.435965	117.627695	0.786484	0.106319	0.045875	0.010041
0.049152	2.833945E-5	0.026150	2.713431E-5	162.053979	117.707428	12.898607	118.412046	0.730695	0.109582	0.049152	0.010057
0.052429	2.849569E-5	0.028334	2.727809E-5	175.590073	118.475561	13.402718	119.231252	0.679032	0.113126	0.052429	0.010113
0.058982	2.870869E-5	0.030701	2.742739E-5	190.256717	119.274290	13.948654	120.087140	0.631185	0.116946	0.058982	0.010188
0.065536	2.928808E-5	0.033265	2.758298E-5	206.148017	120.105066	14.536861	120.981599	0.586868	0.121035	0.065536	0.010394
0.072090	2.967311E-5	0.036044	2.774547E-5	223.366811	120.969350	15.167885	121.916563	0.545813	0.125386	0.072090	0.010530
0.078643	2.988350E-5	0.039054	2.791566E-5	242.024911	121.868482	15.842311	122.893880	0.507774	0.129995	0.078643	0.010605
0.085197	3.034996E-5	0.042316	2.809429E-5	262.240497	122.804013	16.560867	123.915648	0.472527	0.134856	0.085197	0.010771
0.091750	3.076100E-5	0.045851	2.828216E-5	284.146988	123.777075	17.324244	124.983574	0.439855	0.139963	0.091750	0.010917
0.098304	3.104050E-5	0.049681	2.848014E-5	307.877184	124.789576	18.133453	126.100200	0.409580	0.145312	0.098304	0.011016
0.104858	3.154857E-5	0.053831	2.868901E-5	333.596322	125.842713	18.989545	127.267401	0.381501	0.150899	0.104858	0.011196
0.117965	3.198641E-5	0.058328	2.890977E-5	361.463034	126.937779	19.893436	128.487153	0.355464	0.156718	0.117965	0.011351
0.131072	3.253115E-5	0.063199	2.914330E-5	391.650108	128.076683	20.846493	129.762140	0.331322	0.162766	0.131072	0.011545
0.144179	3.322749E-5	0.068478	2.939063E-5	424.363476	129.260874	21.850197	131.094640	0.308921	0.169040	0.144179	0.011792
0.157286	3.330097E-5	0.074198	2.965281E-5	459.811272	130.491932	22.906029	132.487095	0.288134	0.175536	0.157286	0.011818
0.170394	3.445799E-5	0.080396	2.993091E-5	498.221699	131.771234	24.015515	133.941790	0.268840	0.182252	0.170394	0.012229
0.183501	3.698993E-5	0.087111	3.022611E-5	539.833068	133.100979	25.180671	135.461939	0.250933	0.189185	0.183501	0.013127
0.399815	4.104971E-5	0.094387	3.053964E-5	584.932005	134.482382	26.403419	137.049815	0.234300	0.196334	0.399815	0.014568
0.599722	4.635106E-5	0.102272	3.087281E-5	633.791314	135.917176	27.685709	138.708245	0.218855	0.203695	0.599722	0.016449
0.799630	5.205991E-5	0.110814	3.122693E-5	686.722164	137.407670	29.030154	140.440797	0.204509	0.211270	0.799630	0.018475
0.999537	5.694671E-5	0.120070	3.160347E-5	744.084054	138.955567	30.439411	142.250510	0.191175	0.219059	0.999537	0.020209
1.199445	6.209269E-5	0.130099	3.200393E-5	806.240512	140.562600	31.916077	144.140488	0.178781	0.227060	1.199445	0.022036
1.399352	6.721052E-5	0.140966	3.243004E-5	873.581730	142.231024	33.463223	146.114515	0.167259	0.235274	1.399352	0.023852
1.599259	7.252794E-5	0.152740	3.288341E-5	946.551033	143.962983	35.084252	148.176399	0.156543	0.243703	1.599259	0.025739
1.799167	7.776918E-5	0.165500	3.336603E-5	1025.621975	145.760333	36.782556	150.329741	0.146574	0.252350	1.799167	0.027599
1.999074	8.293097E-5	0.179322	3.387968E-5	1111.289397	147.625322	38.561857	152.578677	0.137299	0.261214	1.999074	0.029431
2.198982	8.826762E-5	0.194301	3.442670E-5	1204.103458	149.560731	40.426591	154.928117	0.128667	0.270302	2.198982	0.031325
2.398889	9.342639E-5	0.210531	3.500918E-5	1304.686170	151.568382	42.381075	157.382114	0.120628	0.279617	2.398889	0.033155
2.598796	9.869995E-5	0.228116	3.562962E-5	1413.656813	153.651230	44.430250	159.946078	0.113143	0.289163	2.598796	0.035027
2.798704	0.000104	0.247172	3.629063E-5	1531.741840	155.811612	46.579397	162.625024	0.106170	0.298947	2.798704	0.036917
2.998611	0.000109	0.267815	3.699485E-5	1659.692165	158.051868	48.833910	165.424133	0.099672	0.308974	2.998611	0.038825
3.198519	0.000114	0.290189	3.774560E-5	1798.312759	160.375535	51.200327	168.350188	0.093616	0.319253	3.198519	0.040505
3.398426	0.000120	0.314427	3.854577E-5	1948.547204	162.784216	53.684775	171.408157	0.087967	0.329791	3.398426	0.042423
3.598334	0.000125	0.340687	3.939895E-5	2111.290744	165.281932	56.294723	174.605879	0.082701	0.340598	3.598334	0.044513
3.798241	0.000130	0.369148	4.030918E-5	2287.662243	167.870556	59.037564	177.949312	0.077787	0.351685	3.798241	0.046104
3.998148	0.000136	0.399983	4.128024E-5	2478.730136	170.553925	61.921814	181.446831	0.073202	0.363063	3.998148	0.048163
4.198056	0.000140	0.433390	4.231652E-5	2685.777905	173.334639	64.956439	185.106013	0.068921	0.374746	4.198056	0.049860
4.397963	0.000146	0.469588	4.342295E-5	2910.110375	176.215870	68.151043	188.935432	0.064924	0.386747	4.397963	0.051896
4.597871	0.000152	0.508812	4.460473E-5	3153.172945	179.201178	71.516448	192.944719	0.061191	0.399085	4.597871	0.054079
4.797778	0.000157	0.551316	4.586755E-5	3416.565782	182.292912	75.063568	197.142702	0.057702	0.411774	4.797778	0.055685
4.997685	0.000162	0.597363	4.721725E-5	3701.918566	185.495485	78.805318	201.541195	0.054442	0.424837	4.997685	0.057626
5.197593	0.000167	0.647258	4.866068E-5	4011.170726	188.810885	82.754564	206.150111	0.051394	0.438293	5.197593	0.059343
5.397500	0.000173	0.701329	5.020531E-5	4346.220695	192.242491	86.925456	210.981540	0.048544	0.452166	5.397500	0.061551
5.597408	0.000179	0.759905	5.185849E-5	4709.234678	195.793784	91.333967	216.048835	0.045878	0.466480	5.597408	0.063427
5.797315	0.000184	0.823379	5.362930E-5	5102.592878	199.467140	95.996679	221.365088	0.043383	0.481266	5.797315	0.065203
5.997223	0.000189	0.892157	5.552708E-5	5528.773981	203.266795	100.932877	226.946768	0.041048	0.496554	5.997223	0.067165
6.197130	0.000194	0.966686	5.756222E-5	5990.672150	207.192773	106.160747	232.806679	0.038862	0.512377	6.197130	0.069012
6.397037	0.000200	1.047417	5.974517E-5	6490.995134	211.250084	111.703042	238.964783	0.036815	0.528772	6.397037	0.071152
6.596945	0.000207	1.134916	6.208952E-5	7033.227683	215.438726	117.582282	245.437238	0.034897	0.545781	6.596945	0.073556
6.796852	0.000211	1.229716	6.460798E-5	7620.662199	219.761620	123.824167	252.245107	0.033100	0.563448	6.796852	0.075025
6.996760	0.000218	1.332428	6.731532E-5	8257.208517	224.219617	130.456392	259.409535	0.031416	0.581824	6.996760	0.077441
7.196667	0.000224	1.443719	7.022798E-5	8946.958763	228.812860	137.508365	266.952946	0.029837	0.600964	7.196667	0.079329
7.396574	0.000229	1.564322	7.336421E-5	9694.308688	233.540268	145.011381	274.898813	0.028357	0.620927	7.396574	0.081405
7.596482	0.000234	1.694982	7.674282E-5	10503.938782	238.403174	153.002670	283.277056	0.026969	0.641781	7.596482	0.083020
7.796389	0.000239	1.836552	8.038574E-5	11381.406087	243.396589	161.518718	292.113327	0.025666	0.663603	7.796389	0.084986
7.996297	0.000245	1.989962	8.431719E-5	12332.020985	248.518542	170.601423	301.440394	0.024444	0.686474	7.996297	0.087006
8.196204	0.000250	2.156178	8.856281E-5	13362.078669	253.764221	180.296786	311.292806	0.023297	0.710489	8.196204	0.088770
8.396112	0.000257	2.336284	9.315184E-5	14478.308874	259.124750	190.651749	321.704407	0.022220	0.735753	8.396112	0.091106
8.596019	0.000262	2.531430	9.811591E-5	15687.586817	264.593003	201.720657	332.717118	0.021209	0.762381	8.596019	0.092875
8.795926	0.000267	2.742895	0.000103	16997.969406	270.156803	213.561559	344.373689	0.020260	0.790510	8.795926	0.094924
8.995834	0.000273	2.971976	0.000109	18417.871937	275.800828	226.236148	356.719626	0.019368	0.820288	8.995834	0.096885
9.195741	0.000279	3.220209	0.000116	19956.295047	281.506353	239.811062	369.804235	0.018531	0.851885	9.195741	0.098975
9.395649	0.000284	3.489243	0.000122	21622.959605	287.254969	254.365010	383.688644	0.017745	0.885503	9.395649	0.100638
9.595556	0.000288	3.780647	0.000130	23429.364501	293.014027	269.972823	398.425081	0.017005	0.921365	9.595556	0.102155
9.795464	0.000291	4.096447	0.000138	25386.123195	298.755865	286.725140	414.084983	0.016311	0.959731	9.795464	0.103337
9.995371	0.000299	4.438595	0.000147	27506.611278	304.439646	304.716704	430.738631	0.015659	1.000910	9.995371	0.106000
