MicroRheology Analysis v9.2.8
10/03/18 5:43:00 PM

Correlation Mode:	Cross
Geometry:	Transmission
Multi-Tau Duration (s):	120
Echo Duration (s):	60
Wavelength (nm):	685.0
Temperature (°C):	30.06
Cuvette Thickness (mm):	10.00
Absorption Length (mm):	Inf
Solvent:	Water
Solvent Refractive Index:	1.329
Particle Radius (nm):	465.0
Mean Count Rate (kHz):	169.4
l* (microns):	950.70



Lag Time (s)	Mean Square Displacement (micron^2)	Fit Lag Time (s)	Mean Square Displacement Fit (micron^2)	Frequency(rad/s)	G1 (Pa)	G2 (Pa)	G* (Pa)	Complex Viscosity (Pa s)	Loss Tangent (-)	Time (s)	Creep Compliance (1/Pa)

4.012500E-6	1.438070E-6	4.012555E-6	1.379663E-6	0.090951	0.997978	5.585136	5.673597	62.381095	5.596453	4.012500E-6	0.000502
4.412500E-6	1.492977E-6	4.361001E-6	1.479534E-6	0.098850	0.964000	6.018525	6.095239	61.661659	6.243283	4.412500E-6	0.000521
4.812500E-6	1.562973E-6	4.739770E-6	1.583528E-6	0.107434	0.939522	6.489705	6.557360	61.036122	6.907451	4.812500E-6	0.000545
5.212500E-6	1.648130E-6	5.151391E-6	1.691616E-6	0.116764	0.926416	7.002173	7.063191	60.490968	7.558343	5.212500E-6	0.000575
5.612500E-6	1.811525E-6	5.598670E-6	1.803781E-6	0.126904	0.926915	7.559742	7.616355	60.016887	8.155808	5.612500E-6	0.000632
6.012500E-6	1.983416E-6	6.084933E-6	1.920065E-6	0.137924	0.943606	8.166226	8.220562	59.602133	8.654271	6.012500E-6	0.000692
6.412500E-6	2.025685E-6	6.613368E-6	2.040405E-6	0.149902	0.979493	8.825412	8.879601	59.235939	9.010181	6.412500E-6	0.000707
7.212500E-6	2.143357E-6	7.187679E-6	2.164791E-6	0.162920	1.038054	9.541386	9.597688	58.910573	9.191612	7.212500E-6	0.000748
8.012500E-6	2.340723E-6	7.811939E-6	2.293217E-6	0.177070	1.123215	10.317901	10.378858	58.614555	9.186042	8.012500E-6	0.000817
8.812500E-6	2.565715E-6	8.490344E-6	2.425624E-6	0.192447	1.239455	11.158946	11.227570	58.341046	9.003107	8.812500E-6	0.000895
9.612500E-6	2.630889E-6	9.227638E-6	2.561988E-6	0.209161	1.391741	12.067995	12.147981	58.079466	8.671152	9.612500E-6	0.000918
1.041250E-5	2.768617E-6	1.002903E-5	2.702288E-6	0.227322	1.585703	13.049129	13.145122	57.825888	8.229239	1.041250E-5	0.000966
1.121250E-5	2.866846E-6	1.089994E-5	2.846457E-6	0.247067	1.827416	14.105102	14.222986	57.567392	7.718605	1.121250E-5	0.001000
1.201250E-5	3.026481E-6	1.184659E-5	2.994480E-6	0.268520	2.123687	15.239532	15.386792	57.302301	7.175979	1.201250E-5	0.001056
1.281250E-5	3.148376E-6	1.287548E-5	3.146292E-6	0.291843	2.481693	16.454202	16.640300	57.017907	6.630234	1.281250E-5	0.001099
1.441250E-5	3.287239E-6	1.399364E-5	3.301825E-6	0.317184	2.909349	17.751798	17.988626	56.713553	6.101640	1.441250E-5	0.001147
1.601250E-5	3.415255E-6	1.520873E-5	3.461006E-6	0.344731	3.415017	19.133503	19.435876	56.379798	5.602755	1.601250E-5	0.001192
1.761250E-5	3.631612E-6	1.652974E-5	3.623841E-6	0.374673	4.007333	20.599490	20.985655	56.010657	5.140449	1.761250E-5	0.001267
1.921250E-5	3.794476E-6	1.796527E-5	3.790191E-6	0.407205	4.695655	22.150390	22.642636	55.605033	4.717210	1.921250E-5	0.001324
2.081250E-5	3.966120E-6	1.952526E-5	3.959980E-6	0.442572	5.489334	23.784378	24.409617	55.153984	4.332835	2.081250E-5	0.001384
2.241250E-5	4.113339E-6	2.122084E-5	4.133161E-6	0.481004	6.398163	25.499946	26.290374	54.657297	3.985510	2.241250E-5	0.001435
2.401250E-5	4.292591E-6	2.306369E-5	4.309640E-6	0.522782	7.431626	27.292984	28.286676	54.108009	3.672545	2.401250E-5	0.001498
2.561250E-5	4.559804E-6	2.506679E-5	4.489339E-6	0.568174	8.599629	29.160025	30.401656	53.507666	3.390847	2.561250E-5	0.001591
2.881250E-5	4.841057E-6	2.724365E-5	4.672123E-6	0.617519	9.911632	31.095057	32.636529	52.851082	3.137229	2.881250E-5	0.001689
3.201250E-5	5.065190E-6	2.960958E-5	4.857906E-6	0.671150	11.376514	33.090978	34.991969	52.137341	2.908710	3.201250E-5	0.001768
3.521250E-5	5.259639E-6	3.218107E-5	5.046580E-6	0.729433	13.002886	35.139962	37.468547	51.366694	2.702474	3.521250E-5	0.001835
3.841250E-5	5.421189E-6	3.497584E-5	5.238018E-6	0.792780	14.798519	37.232504	40.065640	50.538151	2.515962	3.841250E-5	0.001892
4.161250E-5	5.621264E-6	3.801351E-5	5.432105E-6	0.861628	16.770371	39.358218	42.782177	49.652708	2.346890	4.161250E-5	0.001962
4.481250E-5	5.844822E-6	4.131484E-5	5.628689E-6	0.936461	18.924144	41.505199	45.615839	48.710856	2.193240	4.481250E-5	0.002040
4.801250E-5	6.061214E-6	4.490235E-5	5.827609E-6	1.017793	21.263858	43.660156	48.562958	47.713969	2.053257	4.801250E-5	0.002115
5.121250E-5	6.303843E-6	4.880195E-5	6.028773E-6	1.106165	23.793330	45.810674	51.621124	46.666735	1.925358	5.121250E-5	0.002200
5.761250E-5	6.561009E-6	5.304017E-5	6.231994E-6	1.202235	26.513829	47.941489	54.784756	45.569076	1.808169	5.761250E-5	0.002290
6.401250E-5	6.824887E-6	5.764677E-5	6.437124E-6	1.306641	29.425347	50.038074	58.048772	44.425938	1.700509	6.401250E-5	0.002382
7.041250E-5	7.081508E-6	6.265312E-5	6.643967E-6	1.420125	32.525625	52.084527	61.406141	43.239970	1.601338	7.041250E-5	0.002471
7.681250E-5	7.316717E-6	6.809360E-5	6.852333E-6	1.543448	35.811189	54.065814	64.850239	42.016473	1.509746	7.681250E-5	0.002553
8.321250E-5	7.523996E-6	7.400683E-5	7.062073E-6	1.677488	39.276693	55.966449	68.373255	40.759300	1.424928	8.321250E-5	0.002626
8.961250E-5	7.691646E-6	8.043448E-5	7.273011E-6	1.823183	42.914101	57.770671	71.965759	39.472595	1.346193	8.961250E-5	0.002684
9.601250E-5	7.892186E-6	8.741921E-5	7.484887E-6	1.981508	46.714483	59.464355	75.619128	38.162423	1.272932	9.601250E-5	0.002754
0.000102	8.109313E-6	9.501211E-5	7.697575E-6	2.153589	50.666969	61.033410	79.323508	36.833169	1.204600	0.000102	0.002830
0.000115	8.339067E-6	0.000103	7.910771E-6	2.340621	54.758475	62.464559	83.068115	35.489781	1.140729	0.000115	0.002910
0.000128	8.601251E-6	0.000112	8.124320E-6	2.543872	58.975250	63.746410	86.842875	34.138062	1.080901	0.000128	0.003001
0.000141	8.858389E-6	0.000122	8.338020E-6	2.764785	63.301941	64.868333	90.636837	32.782601	1.024745	0.000141	0.003091
0.000154	9.059454E-6	0.000133	8.551577E-6	3.004890	67.721931	65.821331	94.438910	31.428413	0.971935	0.000154	0.003161
0.000166	9.259328E-6	0.000144	8.764853E-6	3.265852	72.218018	66.598202	98.238296	30.080446	0.922183	0.000166	0.003231
0.000179	9.422207E-6	0.000157	8.977499E-6	3.549510	76.770808	67.192703	102.022626	28.742736	0.875238	0.000179	0.003288
0.000192	9.594163E-6	0.000170	9.189395E-6	3.857727	81.362696	67.601997	105.782410	27.420920	0.830872	0.000192	0.003348
0.000205	9.784446E-6	0.000185	9.400278E-6	4.192749	85.975003	67.823687	109.506866	26.118157	0.788877	0.000205	0.003414
0.000230	9.999688E-6	0.000201	9.609894E-6	4.556893	90.588166	67.857490	113.185046	24.838208	0.749077	0.000230	0.003489
0.000256	1.022760E-5	0.000218	9.818004E-6	4.952614	95.183912	67.705517	116.807595	23.585041	0.711313	0.000256	0.003569
0.000282	1.044978E-5	0.000237	1.002439E-5	5.382691	99.744660	67.371249	120.365619	22.361608	0.675437	0.000282	0.003647
0.000307	1.063018E-5	0.000258	1.022885E-5	5.850145	104.252959	66.859701	123.850309	21.170468	0.641322	0.000307	0.003710
0.000333	1.079498E-5	0.000281	1.043115E-5	6.358192	108.692816	66.177776	127.254180	20.014208	0.608851	0.000333	0.003767
0.000358	1.092109E-5	0.000305	1.063104E-5	6.910415	113.048398	65.333413	130.569503	18.894598	0.577924	0.000358	0.003811
0.000384	1.105189E-5	0.000331	1.082829E-5	7.510547	117.305895	64.336373	133.790291	17.813655	0.548450	0.000384	0.003857
0.000410	1.120885E-5	0.000360	1.102278E-5	8.162794	121.452916	63.197159	136.911255	16.772596	0.520343	0.000410	0.003911
0.000461	1.139620E-5	0.000391	1.121425E-5	8.871715	125.477462	61.927200	139.927022	15.772263	0.493532	0.000461	0.003977
0.000512	1.160751E-5	0.000425	1.140252E-5	9.642042	129.371740	60.539204	142.835718	14.813844	0.467948	0.000512	0.004051
0.000563	1.180685E-5	0.000462	1.158742E-5	10.479561	133.125525	59.045261	145.632236	13.896788	0.443531	0.000563	0.004120
0.000614	1.196301E-5	0.000502	1.176880E-5	11.389489	136.733878	57.459637	148.316429	13.022220	0.420230	0.000614	0.004175
0.000666	1.210227E-5	0.000546	1.194646E-5	12.378627	140.191863	55.795095	150.886882	12.189307	0.397991	0.000666	0.004223
0.000717	1.221608E-5	0.000594	1.212030E-5	13.453791	143.495197	54.065445	153.342570	11.397722	0.376775	0.000717	0.004263
0.000768	1.234030E-5	0.000645	1.229020E-5	14.622144	146.642152	52.284601	155.684297	10.647159	0.356546	0.000768	0.004306
0.000819	1.248751E-5	0.000701	1.245603E-5	15.891845	149.633014	50.465712	157.913986	9.936794	0.337263	0.000819	0.004358
0.000922	1.265919E-5	0.000762	1.261770E-5	17.272016	152.468160	48.621555	160.033107	9.265456	0.318896	0.000922	0.004418
0.001024	1.284254E-5	0.000828	1.277512E-5	18.771984	155.149858	46.764922	162.044550	8.632255	0.301418	0.001024	0.004482
0.001126	1.302131E-5	0.000900	1.292826E-5	20.402281	157.680896	44.907857	163.951153	8.035923	0.284802	0.001126	0.004544
0.001229	1.317032E-5	0.000978	1.307704E-5	22.173902	160.066171	43.061876	165.757366	7.475336	0.269025	0.001229	0.004596
0.001331	1.331532E-5	0.001063	1.322150E-5	24.099614	162.310485	41.237537	167.467095	6.948954	0.254066	0.001331	0.004647
0.001434	1.343540E-5	0.001156	1.336156E-5	26.192475	164.420344	39.444966	169.085644	6.455505	0.239903	0.001434	0.004688
0.001536	1.356296E-5	0.001256	1.349730E-5	28.467609	166.401452	37.693494	170.617240	5.993381	0.226521	0.001536	0.004733
0.001638	1.370764E-5	0.001365	1.362873E-5	30.939806	168.261251	35.992107	172.067662	5.561368	0.213906	0.001638	0.004783
0.001843	1.386522E-5	0.001484	1.375590E-5	33.626473	170.007774	34.348376	173.442942	5.157928	0.202040	0.001843	0.004838
0.002048	1.404683E-5	0.001612	1.387891E-5	36.546756	171.648670	32.769333	174.748663	4.781510	0.190909	0.002048	0.004902
0.002253	1.423707E-5	0.001752	1.399785E-5	39.720368	173.192776	31.261335	175.991502	4.430762	0.180500	0.002253	0.004968
0.002458	1.440880E-5	0.001905	1.411283E-5	43.170487	174.647746	29.830022	177.176933	4.104122	0.170801	0.002458	0.005028
0.002662	1.457369E-5	0.002070	1.422401E-5	46.919470	176.022312	28.480693	178.311537	3.800374	0.161802	0.002662	0.005086
0.002867	1.470904E-5	0.002250	1.433155E-5	50.993738	177.325456	27.217422	179.402078	3.518120	0.153489	0.002867	0.005133
0.003072	1.483987E-5	0.002445	1.443562E-5	55.422856	178.565130	26.043951	180.454407	3.255957	0.145851	0.003072	0.005179
0.003277	1.498998E-5	0.002657	1.453646E-5	60.235983	179.749805	24.963705	181.475009	3.012734	0.138880	0.003277	0.005231
0.003686	1.515282E-5	0.002888	1.463425E-5	65.466723	180.887939	23.979255	182.470411	2.787224	0.132564	0.003686	0.005288
0.004096	1.532257E-5	0.003139	1.472926E-5	71.152298	181.987404	23.092803	183.446703	2.578226	0.126892	0.004096	0.005347
0.004506	1.548136E-5	0.003412	1.482174E-5	77.331497	183.055968	22.306265	184.410024	2.384669	0.121855	0.004506	0.005402
0.004915	1.559184E-5	0.003708	1.491201E-5	84.046900	184.101267	21.621096	185.366524	2.205513	0.117441	0.004915	0.005441
0.005325	1.568807E-5	0.004030	1.500035E-5	91.345465	185.130687	21.038403	186.322263	2.039754	0.113641	0.005325	0.005475
0.005734	1.576017E-5	0.004380	1.508707E-5	99.278526	186.151131	20.559067	187.282992	1.886440	0.110443	0.005734	0.005500
0.006144	1.582752E-5	0.004760	1.517255E-5	107.900436	187.169314	20.183769	188.254447	1.744705	0.107837	0.006144	0.005523
0.006554	1.589970E-5	0.005174	1.525712E-5	117.270940	188.191628	19.912966	189.242213	1.613718	0.105812	0.006554	0.005548
0.007373	1.597337E-5	0.005623	1.534118E-5	127.454665	189.224290	19.746961	190.251871	1.492702	0.104357	0.007373	0.005574
0.008192	1.603665E-5	0.006111	1.542513E-5	138.523088	190.273323	19.685946	191.288980	1.380918	0.103461	0.008192	0.005596
0.009011	1.608945E-5	0.006642	1.550938E-5	150.555227	191.343840	19.730020	192.358360	1.277660	0.103113	0.009011	0.005615
0.009830	1.611801E-5	0.007219	1.559440E-5	163.629346	192.441470	19.879281	193.465514	1.182340	0.103300	0.009830	0.005625
0.010650	1.616038E-5	0.007846	1.568060E-5	177.840238	193.571072	20.133745	194.615332	1.094327	0.104012	0.010650	0.005639
0.011469	1.620462E-5	0.008527	1.576848E-5	193.284243	194.737453	20.493453	195.812811	1.013082	0.105236	0.011469	0.005655
0.012288	1.625093E-5	0.009268	1.585854E-5	210.068665	195.945324	20.958522	197.063009	0.938089	0.106961	0.012288	0.005671
0.013107	1.625444E-5	0.010073	1.595130E-5	228.312482	197.198861	21.529078	198.370592	0.868856	0.109174	0.013107	0.005672
0.014746	1.622481E-5	0.010947	1.604728E-5	248.139601	198.502274	22.205327	199.740405	0.804952	0.111864	0.014746	0.005662
0.016384	1.621401E-5	0.011898	1.614704E-5	269.688584	199.859719	22.987667	201.177385	0.745962	0.115019	0.016384	0.005658
0.018022	1.631846E-5	0.012931	1.625118E-5	293.112713	201.274550	23.876409	202.685785	0.691494	0.118626	0.018022	0.005695
0.019661	1.656306E-5	0.014054	1.636029E-5	318.565469	202.750822	24.872126	204.270699	0.641220	0.122673	0.019661	0.005780
0.021299	1.694316E-5	0.015275	1.647501E-5	346.230857	204.291903	25.975562	205.936669	0.594796	0.127149	0.021299	0.005912
0.022938	1.729175E-5	0.016601	1.659597E-5	376.296889	205.901623	27.187714	207.688830	0.551928	0.132042	0.022938	0.006034
0.024576	1.751767E-5	0.018043	1.672390E-5	408.980853	207.582667	28.509445	209.531267	0.512325	0.137340	0.024576	0.006113
0.026214	1.756429E-5	0.019610	1.685950E-5	444.493505	209.338960	29.942044	211.469445	0.475754	0.143031	0.026214	0.006129
0.029491	1.754855E-5	0.021313	1.700347E-5	483.095413	211.173552	31.487101	213.508095	0.441958	0.149105	0.029491	0.006124
0.032768	1.763541E-5	0.023164	1.715665E-5	525.049556	213.089620	33.146183	215.652163	0.410727	0.155550	0.032768	0.006154
0.036045	1.788755E-5	0.025176	1.731989E-5	570.645100	215.090527	34.921255	217.906927	0.381861	0.162356	0.036045	0.006242
0.039322	1.828646E-5	0.027362	1.749396E-5	620.201811	217.179568	36.814584	220.277730	0.355171	0.169512	0.039322	0.006381
0.042598	1.869192E-5	0.029738	1.767984E-5	674.065422	219.359763	38.828501	222.769742	0.330487	0.177008	0.042598	0.006523
0.045875	1.881677E-5	0.032321	1.787845E-5	732.602593	221.634702	40.965797	225.388859	0.307655	0.184835	0.045875	0.006566
0.049152	1.893952E-5	0.035128	1.809084E-5	796.227684	224.007715	43.229620	228.140870	0.286527	0.192983	0.049152	0.006609
0.052429	1.914437E-5	0.038179	1.831813E-5	865.382064	226.481624	45.622937	231.031120	0.266970	0.201442	0.052429	0.006681
0.058982	1.941697E-5	0.041494	1.856135E-5	940.525031	229.061145	48.149906	234.067131	0.248869	0.210205	0.058982	0.006776
0.065536	1.998040E-5	0.045098	1.882178E-5	1022.216847	231.748660	50.814351	237.254166	0.232098	0.219265	0.065536	0.006972
0.072090	2.054927E-5	0.049014	1.910066E-5	1110.984266	234.548646	53.620646	240.599752	0.216565	0.228612	0.072090	0.007171
0.078643	2.099984E-5	0.053271	1.939944E-5	1207.466352	237.464791	56.573852	244.110892	0.202168	0.238241	0.078643	0.007328
0.085197	2.160219E-5	0.057897	1.971955E-5	1312.327852	240.501149	59.679238	247.795105	0.188821	0.248145	0.085197	0.007538
0.091750	2.199597E-5	0.062925	2.006259E-5	1426.298206	243.661908	62.942624	251.660285	0.176443	0.258320	0.091750	0.007676
0.098304	2.230322E-5	0.068389	2.043017E-5	1550.170312	246.951241	66.370203	255.714527	0.164959	0.268758	0.098304	0.007783
0.104858	2.281881E-5	0.074328	2.082419E-5	1684.798265	250.373358	69.968532	259.966178	0.154301	0.279457	0.104858	0.007963
0.117965	2.345235E-5	0.080784	2.124665E-5	1831.103033	253.933281	73.745089	264.424752	0.144407	0.290411	0.117965	0.008184
0.131072	2.432842E-5	0.087800	2.169954E-5	1990.112906	257.636392	77.708373	269.100542	0.135219	0.301620	0.131072	0.008490
0.144179	2.543915E-5	0.095424	2.218508E-5	2162.957424	261.486749	81.866597	274.002664	0.126680	0.313081	0.144179	0.008877
0.157286	2.554907E-5	0.103712	2.270598E-5	2350.791537	265.490186	86.229097	279.142429	0.118744	0.324792	0.157286	0.008916
0.170394	2.715449E-5	0.112718	2.326454E-5	2554.940615	269.652110	90.806164	284.531228	0.111365	0.336753	0.170394	0.009476
0.183501	3.116645E-5	0.122507	2.386393E-5	2776.819620	273.978714	95.609106	290.181731	0.104501	0.348965	0.183501	0.010876
0.399815	3.828230E-5	0.133146	2.450713E-5	3017.995722	278.474099	100.648660	296.104672	0.098113	0.361429	0.399815	0.013359
0.599722	4.789689E-5	0.144709	2.519754E-5	3280.042298	283.146740	105.938571	302.316155	0.092168	0.374147	0.599722	0.016714
0.799629	5.885509E-5	0.157277	2.593890E-5	3564.896827	288.002505	111.493258	308.830357	0.086631	0.387126	0.799629	0.020538
0.999537	6.882940E-5	0.170936	2.673508E-5	3874.524283	293.047240	117.327038	315.661716	0.081471	0.400369	0.999537	0.024019
1.199440	7.897149E-5	0.185781	2.759048E-5	4211.027043	298.287345	123.455466	322.825947	0.076662	0.413881	1.199440	0.027558
1.399350	8.917737E-5	0.201914	2.850980E-5	4576.703227	303.730797	129.896592	330.341523	0.072179	0.427670	1.399350	0.031119
1.599260	9.940882E-5	0.219448	2.949825E-5	4974.145043	309.385057	136.669955	338.227424	0.067997	0.441747	1.599260	0.034690
1.799170	0.000110	0.238507	3.056161E-5	5406.134337	315.257350	143.796106	346.503271	0.064094	0.456123	1.799170	0.038261
1.999070	0.000120	0.259220	3.170582E-5	5875.660156	321.354631	151.296732	355.189387	0.060451	0.470809	1.999070	0.041802
2.198980	0.000130	0.281729	3.293753E-5	6385.930671	327.683785	159.194950	364.307144	0.057048	0.485819	2.198980	0.045409
2.398890	0.000140	0.306199	3.426457E-5	6940.403821	334.256429	167.519667	373.885276	0.053871	0.501171	2.398890	0.048999
2.598800	0.000151	0.332791	3.569452E-5	7543.222521	341.076060	176.297013	383.944678	0.050899	0.516885	2.598800	0.052625
2.798700	0.000161	0.361692	3.723630E-5	8198.242236	348.154353	185.559318	394.517065	0.048122	0.532980	2.798700	0.056144
2.998610	0.000171	0.393101	3.889952E-5	8910.282368	355.496241	195.338695	405.628874	0.045524	0.549482	2.998610	0.059825
3.198520	0.000181	0.427237	4.069469E-5	9684.054359	363.110531	205.671186	417.312706	0.043093	0.566415	3.198520	0.063198
3.398430	0.000192	0.464341	4.263366E-5	10524.974384	371.007302	216.598738	429.606135	0.040818	0.583813	3.398430	0.066974
3.598330	0.000202	0.504666	4.472885E-5	11439.133462	379.189627	228.161304	442.540794	0.038687	0.601708	3.598330	0.070634
3.798240	0.000213	0.548491	4.699411E-5	12432.478798	387.668496	240.407683	456.160845	0.036691	0.620137	3.798240	0.074276
3.998150	0.000223	0.596129	4.944511E-5	13512.266717	396.446818	253.386735	470.504960	0.034821	0.639144	3.998150	0.077824
4.198050	0.000234	0.647900	5.209798E-5	14685.668036	405.531473	267.153569	485.620022	0.033068	0.658774	4.198050	0.081508
4.397960	0.000244	0.704164	5.497105E-5	15960.896942	414.928885	281.770452	501.558139	0.031424	0.679081	4.397960	0.085068
4.597870	0.000255	0.765321	5.808491E-5	17347.027101	424.641779	297.303051	518.372207	0.029882	0.700127	4.597870	0.089073
4.797780	0.000266	0.831784	6.146087E-5	18853.635543	434.670773	313.821135	536.117884	0.028436	0.721974	4.797780	0.092914
4.997680	0.000276	0.904024	6.512351E-5	20490.983461	445.017254	331.403236	554.858956	0.027078	0.744697	4.997680	0.096256
5.197590	0.000287	0.982518	6.909792E-5	22270.550182	455.676992	350.132254	574.660000	0.025804	0.768378	5.197590	0.100288
5.397500	0.000299	1.067850	7.341491E-5	24204.377824	466.649441	370.104827	595.599936	0.024607	0.793111	5.397500	0.104366
5.597410	0.000308	1.160593	7.810506E-5	26306.439132	477.924645	391.422024	617.756560	0.023483	0.819004	5.597410	0.107571
5.797310	0.000317	1.261384	8.320238E-5	28591.161283	489.489535	414.192475	641.214013	0.022427	0.846172	5.797310	0.110636
5.997220	0.000327	1.370928	8.874482E-5	31074.172604	501.328753	438.537829	666.067524	0.021435	0.874751	5.997220	0.114136
6.197130	0.000337	1.489980	9.477302E-5	33772.852496	513.419205	464.589445	692.417961	0.020502	0.904893	6.197130	0.117658
6.397030	0.000348	1.619384	0.000101	36705.802637	525.732459	492.491662	720.376746	0.019626	0.936772	6.397030	0.121392
6.596940	0.000360	1.760025	0.000108	39893.413791	538.233632	522.404982	750.068269	0.018802	0.970591	6.596940	0.125460
6.796850	0.000369	1.912844	0.000116	43358.200266	550.872495	554.496806	781.618330	0.018027	1.006579	6.796850	0.128660
6.996760	0.000381	2.078985	0.000125	47123.491949	563.594325	588.956101	815.173510	0.017299	1.045000	6.996760	0.132934
