MicroRheology Analysis v9.2.8
10/03/18 5:41:31 PM

Correlation Mode:	Cross
Geometry:	Transmission
Multi-Tau Duration (s):	120
Echo Duration (s):	60
Wavelength (nm):	685.0
Temperature (°C):	19.99
Cuvette Thickness (mm):	10.00
Absorption Length (mm):	Inf
Solvent:	Water
Solvent Refractive Index:	1.329
Particle Radius (nm):	465.0
Mean Count Rate (kHz):	162.9
l* (microns):	1023.28



Lag Time (s)	Mean Square Displacement (micron^2)	Fit Lag Time (s)	Mean Square Displacement Fit (micron^2)	Frequency(rad/s)	G1 (Pa)	G2 (Pa)	G* (Pa)	Complex Viscosity (Pa s)	Loss Tangent (-)	Time (s)	Creep Compliance (1/Pa)

3.612500E-6	1.355228E-6	3.612538E-6	1.345272E-6	0.079401	-2.098096	11.222325	11.416768	143.785383	-5.348813	3.612500E-6	0.000489
4.012500E-6	1.400155E-6	3.915624E-6	1.432732E-6	0.086062	-1.814144	12.484270	12.615392	146.585710	-6.881630	4.012500E-6	0.000505
4.412500E-6	1.485389E-6	4.244057E-6	1.524017E-6	0.093283	-1.444096	13.828797	13.903994	149.052473	-9.576093	4.412500E-6	0.000536
4.812500E-6	1.610941E-6	4.600151E-6	1.619243E-6	0.101107	-0.978855	15.254058	15.285432	151.180411	-15.583569	4.812500E-6	0.000581
5.212500E-6	1.811457E-6	4.986080E-6	1.718437E-6	0.109589	-0.409166	16.756849	16.761844	152.952160	-40.953665	5.212500E-6	0.000654
5.612500E-6	1.967131E-6	5.404312E-6	1.821650E-6	0.118783	0.273960	18.332918	18.334965	154.357397	66.918116	5.612500E-6	0.000710
6.012500E-6	2.148222E-6	5.857729E-6	1.928982E-6	0.128749	1.079076	19.976526	20.005649	155.385130	18.512631	6.012500E-6	0.000775
6.412500E-6	2.187749E-6	6.349164E-6	2.040456E-6	0.139550	2.014140	21.681049	21.774403	156.032756	10.764419	6.412500E-6	0.000790
7.212500E-6	2.196111E-6	6.881763E-6	2.156114E-6	0.151256	3.086726	23.439394	23.641765	156.303019	7.593609	7.212500E-6	0.000793
8.012500E-6	2.312355E-6	7.459100E-6	2.276025E-6	0.163946	4.303492	25.242610	25.606823	156.191012	5.865611	8.012500E-6	0.000835
8.812500E-6	2.543459E-6	8.084860E-6	2.400215E-6	0.177698	5.670253	27.081603	27.668845	155.706729	4.776083	8.812500E-6	0.000918
9.612500E-6	2.710087E-6	8.763097E-6	2.528719E-6	0.192607	7.191579	28.945512	29.825517	154.851546	4.024917	9.612500E-6	0.000978
1.041250E-5	2.916119E-6	9.498283E-6	2.661578E-6	0.208764	8.871203	30.823938	32.075121	153.642897	3.474606	1.041250E-5	0.001053
1.121250E-5	3.031493E-6	1.029503E-5	2.798790E-6	0.226280	10.711131	32.704368	34.413719	152.084790	3.053307	1.121250E-5	0.001094
1.201250E-5	3.144666E-6	1.115867E-5	2.940400E-6	0.245260	12.712676	34.575694	36.838713	150.202545	2.719781	1.201250E-5	0.001135
1.281250E-5	3.261147E-6	1.209479E-5	3.086420E-6	0.265838	14.875186	36.424606	39.344924	148.003386	2.448682	1.281250E-5	0.001177
1.441250E-5	3.403766E-6	1.310938E-5	3.236844E-6	0.288138	17.196914	38.239091	41.928057	145.513652	2.223602	1.441250E-5	0.001229
1.601250E-5	3.508476E-6	1.420922E-5	3.391698E-6	0.312311	19.674612	40.006333	44.582474	142.750152	2.033399	1.601250E-5	0.001266
1.761250E-5	3.686435E-6	1.540140E-5	3.550969E-6	0.338511	22.303500	41.713944	47.302211	139.735956	1.870287	1.761250E-5	0.001331
1.921250E-5	3.807545E-6	1.669345E-5	3.714618E-6	0.366908	25.077672	43.350051	50.081100	136.494853	1.728631	1.921250E-5	0.001374
2.081250E-5	3.962317E-6	1.809383E-5	3.882634E-6	0.397689	27.989665	44.902922	52.912133	133.049035	1.604268	2.081250E-5	0.001430
2.241250E-5	4.141319E-6	1.961169E-5	4.055001E-6	0.431051	31.030904	46.361772	55.788268	129.423847	1.494052	2.241250E-5	0.001495
2.401250E-5	4.317022E-6	2.125701E-5	4.231697E-6	0.467213	34.191574	47.716377	58.701929	125.642858	1.395560	2.401250E-5	0.001558
2.561250E-5	4.604564E-6	2.304022E-5	4.412652E-6	0.506408	37.461131	48.957727	61.645724	121.731388	1.306894	2.561250E-5	0.001662
2.881250E-5	4.945390E-6	2.497316E-5	4.597844E-6	0.548896	40.827170	50.076994	64.610860	117.710490	1.226560	2.881250E-5	0.001785
3.201250E-5	5.232462E-6	2.706823E-5	4.787200E-6	0.594941	44.277354	51.067545	67.589779	113.607572	1.153356	3.201250E-5	0.001889
3.521250E-5	5.447115E-6	2.933912E-5	4.980659E-6	0.644847	47.799246	51.923633	70.575007	109.444620	1.086286	3.521250E-5	0.001966
3.841250E-5	5.551397E-6	3.180030E-5	5.178125E-6	0.698950	51.378481	52.639850	73.557475	105.240041	1.024551	3.841250E-5	0.002004
4.161250E-5	5.701650E-6	3.446819E-5	5.379551E-6	0.757582	55.001849	53.213442	76.530215	101.019061	0.967485	4.161250E-5	0.002058
4.481250E-5	5.921096E-6	3.735947E-5	5.584797E-6	0.821145	58.654338	53.641371	79.484137	96.796701	0.914534	4.481250E-5	0.002137
4.801250E-5	6.226741E-6	4.049365E-5	5.793814E-6	0.890024	62.322702	53.923518	82.412772	92.596114	0.865231	4.801250E-5	0.002248
5.121250E-5	6.522783E-6	4.389114E-5	6.006491E-6	0.964692	65.992785	54.059612	85.308202	88.430495	0.819175	5.121250E-5	0.002354
5.761250E-5	6.818219E-6	4.757329E-5	6.222666E-6	1.045621	69.650839	54.051295	88.163382	84.316796	0.776032	5.761250E-5	0.002461
6.401250E-5	7.116624E-6	5.156414E-5	6.442223E-6	1.133334	73.284404	53.901381	90.972319	80.269665	0.735510	6.401250E-5	0.002569
7.041250E-5	7.387426E-6	5.588989E-5	6.665038E-6	1.228423	76.879881	53.613014	93.727645	76.299168	0.697361	7.041250E-5	0.002666
7.681250E-5	7.650521E-6	6.057894E-5	6.890981E-6	1.331469	80.426172	53.191500	96.424607	72.419723	0.661371	7.681250E-5	0.002761
8.321250E-5	7.923561E-6	6.566065E-5	7.119845E-6	1.443178	83.911317	52.641832	99.056911	68.638022	0.627351	8.321250E-5	0.002860
8.961250E-5	8.099323E-6	7.116913E-5	7.351520E-6	1.564239	87.325711	51.970882	101.620629	64.964888	0.595138	8.961250E-5	0.002923
9.601250E-5	8.344721E-6	7.713991E-5	7.585820E-6	1.695477	90.659417	51.185276	104.110817	61.405042	0.564589	9.601250E-5	0.003012
0.000102	8.638468E-6	8.361048E-5	7.822517E-6	1.837715	93.903966	50.292934	106.523866	57.965401	0.535578	0.000102	0.003118
0.000115	8.919111E-6	9.062451E-5	8.061486E-6	1.991884	97.051712	49.301934	108.856398	54.649974	0.507997	0.000115	0.003219
0.000128	9.273201E-6	9.822772E-5	8.302532E-6	2.158976	100.096498	48.220879	111.106085	51.462407	0.481744	0.000128	0.003347
0.000141	9.616360E-6	0.000106	8.545407E-6	2.340100	103.032594	47.058405	113.270512	48.404136	0.456733	0.000141	0.003471
0.000154	9.875592E-6	0.000115	8.789948E-6	2.536416	105.855281	45.823616	115.347928	45.476743	0.432889	0.000154	0.003565
0.000166	1.013661E-5	0.000125	9.035873E-6	2.749184	108.561513	44.525623	117.337689	42.680908	0.410142	0.000166	0.003659
0.000179	1.033746E-5	0.000136	9.282962E-6	2.979831	111.148428	43.173301	119.238865	40.015310	0.388429	0.000179	0.003731
0.000192	1.055587E-5	0.000147	9.531105E-6	3.229824	113.614267	41.775797	121.051307	37.479224	0.367699	0.000192	0.003810
0.000205	1.081349E-5	0.000159	9.779920E-6	3.500780	115.958031	40.342005	122.775170	35.070807	0.347902	0.000205	0.003903
0.000230	1.110324E-5	0.000173	1.002922E-5	3.794425	118.180561	38.880513	124.411974	32.788100	0.328992	0.000230	0.004008
0.000256	1.139746E-5	0.000187	1.027880E-5	4.112776	120.281829	37.399443	125.962045	30.627015	0.310932	0.000256	0.004114
0.000282	1.169264E-5	0.000203	1.052831E-5	4.457763	122.263981	35.907099	127.427630	28.585555	0.293685	0.000282	0.004220
0.000307	1.193668E-5	0.000220	1.077760E-5	4.831742	124.128914	34.410857	128.810304	26.659187	0.277219	0.000307	0.004309
0.000333	1.215922E-5	0.000238	1.102641E-5	5.237077	125.879648	32.918058	130.112584	24.844503	0.261504	0.000333	0.004389
0.000358	1.232973E-5	0.000258	1.127440E-5	5.676468	127.519129	31.435474	131.336656	23.137040	0.246516	0.000358	0.004450
0.000384	1.251486E-5	0.000280	1.152143E-5	6.152674	129.051164	29.969649	132.485406	21.532981	0.232231	0.000384	0.004517
0.000410	1.272100E-5	0.000303	1.176714E-5	6.668797	130.480356	28.526309	133.562246	20.027936	0.218625	0.000410	0.004592
0.000461	1.297285E-5	0.000329	1.201131E-5	7.228342	131.810414	27.110954	134.569644	18.616945	0.205681	0.000461	0.004683
0.000512	1.323324E-5	0.000356	1.225371E-5	7.834633	133.046807	25.728748	135.511701	17.296497	0.193381	0.000512	0.004777
0.000563	1.349058E-5	0.000386	1.249407E-5	8.491903	134.194405	24.383873	136.391758	16.061389	0.181706	0.000563	0.004869
0.000614	1.370278E-5	0.000419	1.273220E-5	9.204364	135.258234	23.080577	137.213348	14.907423	0.170641	0.000614	0.004946
0.000666	1.390061E-5	0.000454	1.296776E-5	9.976568	136.243456	21.822654	137.980099	13.830418	0.160174	0.000666	0.005017
0.000717	1.406708E-5	0.000492	1.320051E-5	10.813414	137.155912	20.613214	138.696246	12.826315	0.150290	0.000717	0.005077
0.000768	1.424543E-5	0.000533	1.343033E-5	11.720682	138.000548	19.455055	139.365169	11.890534	0.140978	0.000768	0.005142
0.000819	1.442976E-5	0.000578	1.365686E-5	12.703850	138.783080	18.350793	139.991053	11.019577	0.132226	0.000819	0.005208
0.000922	1.464401E-5	0.000626	1.388002E-5	13.769564	139.508879	17.302375	140.577735	10.209309	0.124023	0.000922	0.005286
0.001024	1.487271E-5	0.000679	1.409948E-5	14.924721	140.183340	16.311584	141.129148	9.456066	0.116359	0.001024	0.005368
0.001126	1.510223E-5	0.000736	1.431509E-5	16.176903	140.811561	15.379957	141.648998	8.756249	0.109224	0.001126	0.005451
0.001229	1.529399E-5	0.000798	1.452666E-5	17.533980	141.398903	14.508691	142.141310	8.106620	0.102608	0.001229	0.005520
0.001331	1.547004E-5	0.000865	1.473402E-5	19.005104	141.950206	13.698718	142.609662	7.503756	0.096504	0.001331	0.005584
0.001434	1.562023E-5	0.000937	1.493693E-5	20.599404	142.470411	12.950846	143.057829	6.944756	0.090902	0.001434	0.005638
0.001536	1.578024E-5	0.001016	1.513534E-5	22.327233	142.964478	12.265451	143.489662	6.426666	0.085794	0.001536	0.005696
0.001638	1.596547E-5	0.001101	1.532906E-5	24.200353	143.436915	11.642798	143.908663	5.946552	0.081170	0.001638	0.005763
0.001843	1.616792E-5	0.001193	1.551793E-5	26.230704	143.892073	11.083151	144.318277	5.501883	0.077024	0.001843	0.005836
0.002048	1.638910E-5	0.001294	1.570185E-5	28.431110	144.334428	10.586496	144.722151	5.090274	0.073347	0.002048	0.005916
0.002253	1.661130E-5	0.001402	1.588073E-5	30.816667	144.767873	10.152738	145.123448	4.709252	0.070131	0.002253	0.005996
0.002458	1.679879E-5	0.001520	1.605447E-5	33.401931	145.196381	9.781764	145.525503	4.356799	0.067369	0.002458	0.006063
0.002662	1.698379E-5	0.001647	1.622299E-5	36.203731	145.623794	9.473252	145.931600	4.030844	0.065053	0.002662	0.006130
0.002867	1.714897E-5	0.001785	1.638626E-5	39.240639	146.053753	9.226839	146.344913	3.729422	0.063174	0.002867	0.006190
0.003072	1.731223E-5	0.001935	1.654422E-5	42.532687	146.489656	9.042162	146.768457	3.450721	0.061726	0.003072	0.006249
0.003277	1.749350E-5	0.002097	1.669683E-5	46.100981	146.934769	8.918838	147.205204	3.193103	0.060699	0.003277	0.006314
0.003686	1.769121E-5	0.002273	1.684415E-5	49.968550	147.392193	8.856451	147.658035	2.955019	0.060088	0.003686	0.006386
0.004096	1.789156E-5	0.002464	1.698609E-5	54.160132	147.864995	8.854578	148.129876	2.735035	0.059883	0.004096	0.006458
0.004506	1.808383E-5	0.002671	1.712276E-5	58.703664	148.356026	8.912811	148.623513	2.531759	0.060077	0.004506	0.006527
0.004915	1.822074E-5	0.002895	1.725413E-5	63.628708	148.868007	9.030775	149.141672	2.343937	0.060663	0.004915	0.006577
0.005325	1.833385E-5	0.003138	1.738032E-5	68.967293	149.403454	9.208106	149.686945	2.170405	0.061632	0.005325	0.006618
0.005734	1.841392E-5	0.003401	1.750139E-5	74.753082	149.964915	9.444481	150.262017	2.010111	0.062978	0.005734	0.006646
0.006144	1.848471E-5	0.003686	1.761741E-5	81.024326	150.554687	9.739617	150.869394	1.862026	0.064692	0.006144	0.006672
0.006554	1.855746E-5	0.003996	1.772850E-5	87.820578	151.175193	10.093324	151.511762	1.725242	0.066766	0.006554	0.006698
0.007373	1.861657E-5	0.004331	1.783480E-5	95.187759	151.828667	10.505520	152.191688	1.598858	0.069193	0.007373	0.006720
0.008192	1.865794E-5	0.004694	1.793644E-5	103.174347	152.517004	10.976065	152.911447	1.482068	0.071966	0.008192	0.006735
0.009011	1.869677E-5	0.005088	1.803358E-5	111.828862	153.242424	11.504949	153.673694	1.374186	0.075077	0.009011	0.006749
0.009830	1.871753E-5	0.005515	1.812638E-5	121.209969	154.006970	12.092364	154.480977	1.274491	0.078518	0.009830	0.006756
0.010650	1.874985E-5	0.005977	1.821507E-5	131.379561	154.812467	12.738469	155.335664	1.182343	0.082283	0.010650	0.006768
0.011469	1.878497E-5	0.006479	1.829979E-5	142.401924	155.660813	13.443500	156.240253	1.097178	0.086364	0.011469	0.006780
0.012288	1.880425E-5	0.007022	1.838083E-5	154.348820	156.553710	14.207750	157.197088	1.018453	0.090753	0.012288	0.006787
0.013107	1.879876E-5	0.007612	1.845839E-5	167.294907	157.493401	15.031861	158.209128	0.945690	0.095444	0.013107	0.006785
0.014746	1.875718E-5	0.008250	1.853272E-5	181.331732	158.481194	15.916353	159.278433	0.878381	0.100431	0.014746	0.006770
0.016384	1.868883E-5	0.008942	1.860408E-5	196.541336	159.519360	16.861968	160.408080	0.816154	0.105705	0.016384	0.006746
0.018022	1.868423E-5	0.009692	1.867274E-5	213.031408	160.609318	17.869565	161.600354	0.758575	0.111261	0.018022	0.006744
0.019661	1.881868E-5	0.010506	1.873902E-5	230.902033	161.753120	18.940076	162.858215	0.705313	0.117092	0.019661	0.006793
0.021299	1.911702E-5	0.011387	1.880320E-5	250.274417	162.952282	20.074555	164.184147	0.656016	0.123193	0.021299	0.006900
0.022938	1.947113E-5	0.012342	1.886559E-5	271.268594	164.208834	21.274212	165.581198	0.610396	0.129556	0.022938	0.007028
0.024576	1.970705E-5	0.013377	1.892654E-5	294.025047	165.524747	22.540614	167.052450	0.568157	0.136177	0.024576	0.007113
0.026214	1.971953E-5	0.014500	1.898638E-5	318.694791	166.901556	23.875148	168.600570	0.529035	0.143049	0.026214	0.007118
0.029491	1.962327E-5	0.015716	1.904548E-5	345.430918	168.341081	25.279264	170.228554	0.492801	0.150167	0.029491	0.007083
0.032768	1.955460E-5	0.017035	1.910418E-5	374.404334	169.845918	26.755154	171.940321	0.459237	0.157526	0.032768	0.007058
0.036045	1.966197E-5	0.018464	1.916287E-5	405.818281	171.417266	28.304655	173.738403	0.428119	0.165121	0.036045	0.007097
0.039322	1.995277E-5	0.020013	1.922194E-5	439.858233	173.058026	29.930092	175.627136	0.399281	0.172948	0.039322	0.007202
0.042598	2.017430E-5	0.021692	1.928179E-5	476.765516	174.769399	31.633673	177.609212	0.372529	0.181002	0.042598	0.007282
0.045875	2.016955E-5	0.023511	1.934285E-5	516.757579	176.554226	33.417939	179.689046	0.347724	0.189279	0.045875	0.007280
0.049152	2.017194E-5	0.025484	1.940554E-5	560.109800	178.414518	35.285809	181.870362	0.324705	0.197774	0.049152	0.007281
0.052429	2.018503E-5	0.027621	1.947030E-5	607.098062	180.352544	37.240117	184.157179	0.303340	0.206485	0.052429	0.007286
0.058982	2.025787E-5	0.029938	1.953757E-5	658.025062	182.370963	39.284184	186.554054	0.283506	0.215408	0.058982	0.007312
0.065536	2.055810E-5	0.032450	1.960785E-5	713.227950	184.472282	41.421565	189.065514	0.265084	0.224541	0.065536	0.007420
0.072090	2.077418E-5	0.035173	1.968163E-5	773.065865	186.658797	43.655759	191.695936	0.247968	0.233880	0.072090	0.007498
0.078643	2.089149E-5	0.038123	1.975937E-5	837.917636	188.933469	45.990740	194.450518	0.232064	0.243423	0.078643	0.007541
0.085197	2.112326E-5	0.041322	1.984162E-5	908.211002	191.299375	48.431021	197.334778	0.217279	0.253169	0.085197	0.007624
0.091750	2.125532E-5	0.044788	1.992890E-5	984.411666	193.758985	50.980961	200.353694	0.203526	0.263115	0.091750	0.007672
0.098304	2.130008E-5	0.048545	2.002175E-5	1066.999751	196.314997	53.644961	203.512554	0.190733	0.273260	0.098304	0.007688
0.104858	2.146370E-5	0.052617	2.012078E-5	1156.495931	198.971865	56.428876	206.818813	0.178832	0.283602	0.104858	0.007747
0.117965	2.164304E-5	0.057032	2.022658E-5	1253.525759	201.731909	59.338123	210.277854	0.167749	0.294143	0.117965	0.007812
0.131072	2.191099E-5	0.061817	2.033975E-5	1358.686477	204.598850	62.378396	213.896596	0.157429	0.304881	0.131072	0.007909
0.144179	2.228880E-5	0.067003	2.046095E-5	1472.667425	207.576222	65.556042	217.682068	0.147815	0.315817	0.144179	0.008045
0.157286	2.230656E-5	0.072624	2.059084E-5	1596.205598	210.668531	68.878304	221.642620	0.138856	0.326951	0.157286	0.008052
0.170394	2.278374E-5	0.078716	2.073013E-5	1730.135347	213.878077	72.351569	225.784369	0.130501	0.338284	0.170394	0.008224
0.183501	2.411048E-5	0.085319	2.087955E-5	1875.258835	217.210765	75.984152	230.117596	0.122712	0.349818	0.183501	0.008703
0.399815	2.648859E-5	0.092478	2.103992E-5	2032.592656	220.669051	79.783681	234.649240	0.115443	0.361554	0.399815	0.009561
0.599723	2.964057E-5	0.100235	2.121197E-5	2203.082324	224.258961	83.759383	239.390300	0.108662	0.373494	0.599723	0.010699
0.799630	3.324390E-5	0.108644	2.139664E-5	2387.902708	227.985242	87.921323	244.351038	0.102329	0.385645	0.799630	0.011999
0.999538	3.657806E-5	0.117759	2.159481E-5	2588.272901	231.850886	92.278281	249.539806	0.096412	0.398007	0.999538	0.013203
1.199450	3.974536E-5	0.127638	2.180741E-5	2805.402990	235.861899	96.840956	254.968638	0.090885	0.410583	1.199450	0.014346
1.399350	4.291742E-5	0.138344	2.203542E-5	3040.744388	240.023157	101.620842	260.649020	0.085719	0.423379	1.399350	0.015491
1.599260	4.614271E-5	0.149952	2.228004E-5	3295.812044	244.340597	106.630446	266.594035	0.080889	0.436401	1.599260	0.016655
1.799170	4.932625E-5	0.162531	2.254229E-5	3572.293154	248.820328	111.883419	272.817622	0.076370	0.449655	1.799170	0.017804
1.999070	5.273836E-5	0.176166	2.282345E-5	3872.023417	253.465871	117.392114	279.331087	0.072141	0.463148	1.999070	0.019036
2.198980	5.608564E-5	0.190946	2.312483E-5	4196.810868	258.285966	123.172721	286.152336	0.068183	0.476885	2.198980	0.020244
2.398890	5.929944E-5	0.206965	2.344777E-5	4548.925547	263.284768	129.240480	293.295024	0.064476	0.490877	2.398890	0.021404
2.598800	6.265709E-5	0.224328	2.379381E-5	4930.539691	268.468704	135.611717	300.775635	0.061003	0.505130	2.598800	0.022616
2.798700	6.598583E-5	0.243145	2.416448E-5	5344.112053	273.846303	142.306175	308.614396	0.057748	0.519657	2.798700	0.023817
2.998610	6.947300E-5	0.263545	2.456164E-5	5792.468014	279.422442	149.342467	316.828144	0.054697	0.534468	2.998610	0.025076
3.198520	7.308243E-5	0.285651	2.498695E-5	6278.394141	285.204841	156.741424	325.437667	0.051835	0.549575	3.198520	0.026379
3.398430	7.646310E-5	0.309614	2.544258E-5	6805.081683	291.202225	164.526999	334.466545	0.049150	0.564992	3.398430	0.027599
3.598340	7.988394E-5	0.335589	2.593065E-5	7376.089189	297.417710	172.720008	343.932399	0.046628	0.580732	3.598340	0.028834
3.798240	8.308655E-5	0.363744	2.645348E-5	7994.775487	303.862755	181.348118	353.863976	0.044262	0.596809	3.798240	0.029990
3.998150	8.634380E-5	0.394257	2.701353E-5	8665.445002	310.544809	190.440101	364.287676	0.042039	0.613245	3.998150	0.031166
4.198060	8.976658E-5	0.427332	2.761365E-5	9392.484969	317.469656	200.023808	375.228605	0.039950	0.630056	4.198060	0.032401
4.397970	9.309262E-5	0.463183	2.825681E-5	10180.425929	324.647115	210.132120	386.718576	0.037986	0.647263	4.397970	0.033602
4.597870	9.672694E-5	0.502037	2.894617E-5	11034.542014	332.083449	220.798232	398.787257	0.036140	0.664888	4.597870	0.034913
4.797780	0.000100	0.544154	2.968539E-5	11960.223765	339.786805	232.058428	411.468330	0.034403	0.682953	4.797780	0.036202
4.997690	0.000104	0.589805	3.047828E-5	12963.457415	347.767670	243.954785	424.801471	0.032769	0.701488	4.997690	0.037433
5.197600	0.000107	0.639288	3.132912E-5	14051.035394	356.031833	256.528744	438.823042	0.031231	0.720522	5.197600	0.038779
5.397500	0.000111	0.692915	3.224233E-5	15229.822836	364.586756	269.825063	453.573663	0.029782	0.740085	5.397500	0.040003
5.597410	0.000114	0.751050	3.322325E-5	16507.387319	373.442504	283.895582	469.101274	0.028418	0.760212	5.597410	0.041296
5.797320	0.000118	0.814052	3.427710E-5	17892.324381	382.603624	298.791572	485.450241	0.027132	0.780943	5.797320	0.042596
5.997230	0.000122	0.882353	3.541035E-5	19393.321133	392.078066	314.570612	502.672737	0.025920	0.802316	5.997230	0.043903
6.197130	0.000125	0.956370	3.662927E-5	21020.200296	401.872914	331.295800	520.825063	0.024777	0.824380	6.197130	0.045236
6.397040	0.000128	1.036600	3.794149E-5	22783.643986	411.994445	349.035182	539.967574	0.023700	0.847184	6.397040	0.046274
6.596950	0.000133	1.123565	3.935513E-5	24695.227708	422.444831	367.858116	560.160003	0.022683	0.870784	6.596950	0.047983
