MicroRheology Analysis v9.2.8
10/03/18 5:42:10 PM

Correlation Mode:	Cross
Geometry:	Transmission
Multi-Tau Duration (s):	120
Echo Duration (s):	60
Wavelength (nm):	685.0
Temperature (°C):	25.00
Cuvette Thickness (mm):	10.00
Absorption Length (mm):	Inf
Solvent:	Water
Solvent Refractive Index:	1.329
Particle Radius (nm):	465.0
Mean Count Rate (kHz):	166.3
l* (microns):	969.44



Lag Time (s)	Mean Square Displacement (micron^2)	Fit Lag Time (s)	Mean Square Displacement Fit (micron^2)	Frequency(rad/s)	G1 (Pa)	G2 (Pa)	G* (Pa)	Complex Viscosity (Pa s)	Loss Tangent (-)	Time (s)	Creep Compliance (1/Pa)

7.212500E-6	2.245305E-6	7.212614E-6	2.092009E-6	0.079401	-1.086003	7.291795	7.372223	92.848325	-6.714344	7.212500E-6	0.000797
8.012500E-6	2.312954E-6	7.815535E-6	2.211428E-6	0.086039	-1.066901	8.013605	8.084315	93.960809	-7.511105	8.012500E-6	0.000821
8.812500E-6	2.405404E-6	8.469011E-6	2.334625E-6	0.093233	-1.021791	8.800908	8.860025	95.031286	-8.613222	8.812500E-6	0.000854
9.612500E-6	2.522779E-6	9.177146E-6	2.461568E-6	0.101028	-0.945524	9.657215	9.703392	96.046359	-10.213609	9.612500E-6	0.000895
1.041250E-5	2.676997E-6	9.944338E-6	2.592220E-6	0.109474	-0.832423	10.586112	10.618789	96.997872	-12.717221	1.041250E-5	0.000950
1.121250E-5	2.809695E-6	1.077573E-5	2.726601E-6	0.118628	-0.676218	11.590592	11.610301	97.871907	-17.140306	1.121250E-5	0.000997
1.201250E-5	2.931517E-6	1.167669E-5	2.864696E-6	0.128545	-0.470098	12.673720	12.682435	98.661651	-26.959742	1.201250E-5	0.001040
1.281250E-5	3.054769E-6	1.265290E-5	3.006467E-6	0.139293	-0.206706	13.837385	13.838929	99.351051	-66.942338	1.281250E-5	0.001084
1.441250E-5	3.207134E-6	1.371087E-5	3.151922E-6	0.150938	0.121796	15.083741	15.084233	99.936642	123.844476	1.441250E-5	0.001138
1.601250E-5	3.298733E-6	1.485725E-5	3.301010E-6	0.163559	0.523718	16.413432	16.421785	100.403059	31.340183	1.601250E-5	0.001171
1.761250E-5	3.455237E-6	1.609947E-5	3.453710E-6	0.177232	1.007757	17.827154	17.855615	100.747189	17.689933	1.761250E-5	0.001226
1.921250E-5	3.616034E-6	1.744530E-5	3.609962E-6	0.192050	1.582997	19.324325	19.389054	100.958246	12.207432	1.921250E-5	0.001283
2.081250E-5	3.746195E-6	1.890409E-5	3.769808E-6	0.208109	2.258600	20.903184	21.024851	101.028217	9.254928	2.081250E-5	0.001329
2.241250E-5	3.886137E-6	2.048467E-5	3.933140E-6	0.225508	3.043960	22.561598	22.766014	100.954535	7.411923	2.241250E-5	0.001379
2.401250E-5	4.104372E-6	2.219718E-5	4.099913E-6	0.244363	3.948352	24.295593	24.614332	100.728541	6.153350	2.401250E-5	0.001457
2.561250E-5	4.369166E-6	2.405305E-5	4.270114E-6	0.264792	4.981069	26.101017	26.572056	100.350844	5.240043	2.561250E-5	0.001551
2.881250E-5	4.625252E-6	2.606389E-5	4.443660E-6	0.286931	6.150989	27.971642	28.639962	99.814749	4.547503	2.881250E-5	0.001641
3.201250E-5	4.910585E-6	2.824324E-5	4.620537E-6	0.310920	7.466528	29.900580	30.818724	99.121155	4.004616	3.201250E-5	0.001743
3.521250E-5	5.127883E-6	3.060434E-5	4.800617E-6	0.336913	8.935744	31.880011	33.108649	98.270585	3.567695	3.521250E-5	0.001820
3.841250E-5	5.263451E-6	3.316337E-5	4.983900E-6	0.365084	10.565758	33.900443	35.508806	97.262086	3.208520	3.841250E-5	0.001868
4.161250E-5	5.476159E-6	3.593612E-5	5.170259E-6	0.395611	12.362279	35.950797	38.016914	96.096678	2.908104	4.161250E-5	0.001943
4.481250E-5	5.698312E-6	3.894019E-5	5.359597E-6	0.428681	14.330942	38.020984	40.632144	94.784207	2.653069	4.481250E-5	0.002022
4.801250E-5	5.918338E-6	4.219645E-5	5.551916E-6	0.464524	16.475533	40.097951	43.350765	93.322884	2.433788	4.801250E-5	0.002100
5.121250E-5	6.182042E-6	4.572403E-5	5.747009E-6	0.503363	18.798594	42.168994	46.169375	91.721814	2.243199	5.121250E-5	0.002194
5.761250E-5	6.449660E-6	4.954720E-5	5.944861E-6	0.545452	21.300822	44.219870	49.082807	89.985609	2.075970	5.761250E-5	0.002289
6.401250E-5	6.724832E-6	5.368972E-5	6.145313E-6	0.591051	23.982263	46.237398	52.086907	88.125981	1.927983	6.401250E-5	0.002387
7.041250E-5	7.016046E-6	5.817842E-5	6.348255E-6	0.640471	26.840282	48.206165	55.174588	86.146847	1.796038	7.041250E-5	0.002490
7.681250E-5	7.273554E-6	6.304278E-5	6.553589E-6	0.694013	29.871806	50.112860	58.340582	84.062670	1.677597	7.681250E-5	0.002581
8.321250E-5	7.492732E-6	6.831307E-5	6.761136E-6	0.752046	33.070400	51.941622	61.575835	81.877728	1.570638	8.321250E-5	0.002659
8.961250E-5	7.664575E-6	7.402429E-5	6.970798E-6	0.814911	36.429658	53.679749	64.873997	79.608698	1.473518	8.961250E-5	0.002720
9.601250E-5	7.854437E-6	8.021379E-5	7.182445E-6	0.883043	39.941224	55.313355	68.226597	77.263024	1.384869	9.601250E-5	0.002787
0.000102	8.085338E-6	8.692029E-5	7.395880E-6	0.956884	43.593756	56.828771	71.623493	74.850774	1.303599	0.000102	0.002869
0.000115	8.334872E-6	9.418817E-5	7.610976E-6	1.036880	47.375915	58.214833	75.056273	72.386669	1.228785	0.000115	0.002958
0.000128	8.628427E-6	0.000102	7.827492E-6	1.123567	51.274779	59.460405	78.515239	69.880311	1.159642	0.000128	0.003062
0.000141	8.922382E-6	0.000111	8.045335E-6	1.217504	55.276269	60.555911	81.990757	67.343335	1.095514	0.000141	0.003166
0.000154	9.171954E-6	0.000120	8.264331E-6	1.319301	59.364676	61.492666	85.472292	64.786050	1.035846	0.000154	0.003255
0.000166	9.393351E-6	0.000130	8.484196E-6	1.429598	63.524315	62.264204	88.950378	62.220537	0.980163	0.000166	0.003334
0.000179	9.578390E-6	0.000141	8.704795E-6	1.549125	67.738377	62.864913	92.414744	59.656096	0.928055	0.000179	0.003399
0.000192	9.760161E-6	0.000152	8.925930E-6	1.678642	71.990231	63.291345	95.856078	57.103362	0.879166	0.000192	0.003464
0.000205	9.969779E-6	0.000165	9.147372E-6	1.819005	76.261989	63.540945	99.264004	54.570496	0.833193	0.000205	0.003538
0.000230	1.019318E-5	0.000179	9.368938E-6	1.971090	80.536423	63.613569	102.629438	52.067346	0.789873	0.000230	0.003617
0.000256	1.044985E-5	0.000194	9.590380E-6	2.135886	84.796530	63.510319	105.943438	49.601646	0.748973	0.000256	0.003708
0.000282	1.069744E-5	0.000210	9.811479E-6	2.314451	89.026197	63.234056	109.198029	47.180962	0.710286	0.000282	0.003796
0.000307	1.090202E-5	0.000228	1.003197E-5	2.507965	93.209104	62.788703	112.384867	44.811171	0.673633	0.000307	0.003869
0.000333	1.108130E-5	0.000247	1.025175E-5	2.717655	97.329941	62.180013	115.496630	42.498629	0.638858	0.000333	0.003933
0.000358	1.123387E-5	0.000268	1.047044E-5	2.944874	101.374194	61.414852	118.526416	40.248382	0.605823	0.000358	0.003987
0.000384	1.140131E-5	0.000290	1.068791E-5	3.191071	105.328742	60.501396	121.468361	38.065079	0.574405	0.000384	0.004046
0.000410	1.159530E-5	0.000314	1.090386E-5	3.457843	109.182441	59.448738	124.317971	35.952459	0.544490	0.000410	0.004115
0.000461	1.181582E-5	0.000340	1.111809E-5	3.746992	112.922939	58.266361	127.069111	33.912298	0.515983	0.000461	0.004193
0.000512	1.204164E-5	0.000369	1.133036E-5	4.060238	116.541334	56.965668	129.718811	31.948570	0.488802	0.000512	0.004273
0.000563	1.224765E-5	0.000400	1.154048E-5	4.399682	120.029707	55.557569	132.264031	30.062181	0.462865	0.000563	0.004346
0.000614	1.241969E-5	0.000433	1.174817E-5	4.767525	123.381184	54.053716	134.702341	28.254143	0.438103	0.000614	0.004408
0.000666	1.257699E-5	0.000469	1.195323E-5	5.166136	126.590166	52.466131	137.031986	26.525042	0.414457	0.000666	0.004463
0.000717	1.271022E-5	0.000509	1.215545E-5	5.598066	129.653002	50.806967	139.252464	24.875100	0.391869	0.000717	0.004511
0.000768	1.285168E-5	0.000551	1.235459E-5	6.066172	132.565918	49.088290	141.362593	23.303428	0.370293	0.000768	0.004561
0.000819	1.301518E-5	0.000597	1.255047E-5	6.573282	135.328679	47.322440	143.364098	21.810126	0.349685	0.000819	0.004619
0.000922	1.319606E-5	0.000647	1.274286E-5	7.122918	137.940221	45.520733	145.257157	20.392929	0.330003	0.000922	0.004683
0.001024	1.339635E-5	0.000701	1.293164E-5	7.718427	140.401767	43.695028	147.043910	19.051021	0.311214	0.001024	0.004754
0.001126	1.358861E-5	0.000760	1.311660E-5	8.363747	142.715392	41.856140	148.726661	17.782301	0.293284	0.001126	0.004822
0.001229	1.375264E-5	0.000823	1.329752E-5	9.063071	144.883551	40.014721	150.307755	16.584638	0.276185	0.001229	0.004881
0.001331	1.390717E-5	0.000892	1.347434E-5	9.820762	146.910538	38.180887	151.790930	15.456125	0.259892	0.001331	0.004935
0.001434	1.404286E-5	0.000967	1.364682E-5	10.641896	148.800313	36.363979	153.179216	14.393978	0.244381	0.001434	0.004984
0.001536	1.417883E-5	0.001047	1.381491E-5	11.531502	150.558724	34.572933	154.477238	13.396108	0.229631	0.001536	0.005032
0.001638	1.434126E-5	0.001135	1.397844E-5	12.495607	152.191560	32.815561	155.689216	12.459516	0.215620	0.001638	0.005089
0.001843	1.452627E-5	0.001230	1.413732E-5	13.540430	153.704917	31.099470	156.819573	11.581580	0.202332	0.001843	0.005155
0.002048	1.472406E-5	0.001333	1.429149E-5	14.672607	155.105127	29.431743	157.872822	10.759698	0.189754	0.002048	0.005225
0.002253	1.492682E-5	0.001444	1.444084E-5	15.899151	156.399924	27.818436	158.854655	9.991392	0.177867	0.002253	0.005297
0.002458	1.510345E-5	0.001565	1.458538E-5	17.228551	157.596188	26.264799	159.769828	9.273550	0.166659	0.002458	0.005360
0.002662	1.526060E-5	0.001696	1.472501E-5	18.669071	158.701213	24.775993	160.623551	8.603725	0.156117	0.002662	0.005416
0.002867	1.539497E-5	0.001838	1.485973E-5	20.229882	159.722681	23.356250	161.421341	7.979352	0.146230	0.002867	0.005463
0.003072	1.553255E-5	0.001991	1.498955E-5	21.921281	160.668085	22.009161	162.168544	7.397768	0.136985	0.003072	0.005512
0.003277	1.569110E-5	0.002158	1.511448E-5	23.754177	161.544676	20.738014	162.870340	6.856493	0.128373	0.003277	0.005569
0.003686	1.587440E-5	0.002338	1.523456E-5	25.739996	162.360062	19.545482	163.532307	6.353237	0.120384	0.003686	0.005634
0.004096	1.606550E-5	0.002534	1.534985E-5	27.891910	163.121538	18.433605	164.159781	5.885570	0.113005	0.004096	0.005701
0.004506	1.624132E-5	0.002745	1.546041E-5	30.223896	163.836177	17.404151	164.757997	5.451249	0.106229	0.004506	0.005764
0.004915	1.637044E-5	0.002975	1.556634E-5	32.750950	164.510761	16.458584	165.332016	5.048159	0.100046	0.004915	0.005810
0.005325	1.647409E-5	0.003224	1.566775E-5	35.488942	165.152213	15.597892	165.887153	4.674334	0.094446	0.005325	0.005846
0.005734	1.654876E-5	0.003493	1.576478E-5	38.456278	165.766852	14.822736	166.428251	4.327726	0.089419	0.005734	0.005873
0.006144	1.662139E-5	0.003785	1.585757E-5	41.671594	166.360867	14.133647	166.960169	4.006570	0.084958	0.006144	0.005899
0.006554	1.669486E-5	0.004102	1.594627E-5	45.155434	166.940378	13.530768	167.487825	3.709140	0.081052	0.006554	0.005925
0.007373	1.675830E-5	0.004445	1.603110E-5	48.931109	167.510865	13.014105	168.015644	3.433718	0.077691	0.007373	0.005947
0.008192	1.681913E-5	0.004816	1.611224E-5	53.021787	168.077993	12.583495	168.548379	3.178851	0.074867	0.008192	0.005969
0.009011	1.687611E-5	0.005219	1.618993E-5	57.455387	168.646710	12.238604	169.090201	2.942983	0.072569	0.009011	0.005989
0.009830	1.691456E-5	0.005655	1.626439E-5	62.259108	169.221902	11.979069	169.645366	2.724828	0.070789	0.009830	0.006003
0.010650	1.696505E-5	0.006128	1.633587E-5	67.463704	169.808377	11.804344	170.218176	2.523107	0.069516	0.010650	0.006021
0.011469	1.700857E-5	0.006641	1.640466E-5	73.104255	170.410486	11.713854	170.812612	2.336562	0.068739	0.011469	0.006036
0.012288	1.701676E-5	0.007196	1.647105E-5	79.217043	171.032166	11.707016	171.432366	2.164084	0.068449	0.012288	0.006039
0.013107	1.697088E-5	0.007797	1.653533E-5	85.839233	171.677655	11.783237	172.081556	2.004696	0.068636	0.013107	0.006023
0.014746	1.687952E-5	0.008449	1.659782E-5	93.017190	172.350290	11.941876	172.763511	1.857329	0.069288	0.014746	0.005990
0.016384	1.679335E-5	0.009156	1.665888E-5	100.792906	173.053909	12.182376	173.482177	1.721174	0.070396	0.016384	0.005960
0.018022	1.681215E-5	0.009921	1.671884E-5	109.220936	173.791608	12.504197	174.240862	1.595306	0.071949	0.018022	0.005966
0.019661	1.699475E-5	0.010751	1.677806E-5	118.352974	174.566479	12.906789	175.042968	1.478991	0.073936	0.019661	0.006031
0.021299	1.733174E-5	0.011650	1.683694E-5	128.247327	175.381615	13.389745	175.892001	1.371506	0.076346	0.021299	0.006151
0.022938	1.769688E-5	0.012624	1.689586E-5	138.969706	176.239818	13.952743	176.791268	1.272157	0.079169	0.022938	0.006280
0.024576	1.793962E-5	0.013679	1.695524E-5	150.589105	177.143707	14.595485	177.743976	1.180324	0.082393	0.024576	0.006366
0.026214	1.795188E-5	0.014823	1.701551E-5	163.179447	178.095798	15.317741	178.753312	1.095440	0.086008	0.026214	0.006371
0.029491	1.783201E-5	0.016062	1.707708E-5	176.820895	179.098699	16.119480	179.822639	1.016976	0.090003	0.029491	0.006328
0.032768	1.774766E-5	0.017405	1.714043E-5	191.603853	180.154910	17.000885	180.955303	0.944424	0.094368	0.032768	0.006298
0.036045	1.784565E-5	0.018860	1.720604E-5	207.626184	181.266348	17.961975	182.154115	0.877318	0.099092	0.036045	0.006333
0.039322	1.814662E-5	0.020437	1.727437E-5	224.984136	182.435559	19.003025	183.422595	0.815269	0.104163	0.039322	0.006440
0.042598	1.840885E-5	0.022146	1.734594E-5	243.795381	183.664461	20.124444	184.763708	0.757864	0.109572	0.042598	0.006533
0.045875	1.843281E-5	0.023997	1.742125E-5	264.175723	184.955572	21.326871	186.181092	0.704762	0.115308	0.045875	0.006541
0.049152	1.844692E-5	0.026004	1.750085E-5	286.263743	186.310796	22.611065	187.677843	0.655612	0.121362	0.049152	0.006546
0.052429	1.850137E-5	0.028178	1.758530E-5	310.197314	187.732279	23.977786	189.257346	0.610119	0.127723	0.052429	0.006566
0.058982	1.861860E-5	0.030533	1.767515E-5	336.131064	189.222304	25.428168	190.923210	0.568002	0.134383	0.058982	0.006607
0.065536	1.898963E-5	0.033086	1.777104E-5	364.235611	190.782797	26.963351	192.678743	0.528995	0.141330	0.065536	0.006739
0.072090	1.927660E-5	0.035853	1.787356E-5	394.687516	192.416083	28.584694	194.527720	0.492865	0.148557	0.072090	0.006841
0.078643	1.945916E-5	0.038850	1.798335E-5	427.686536	194.124401	30.293855	196.473919	0.459388	0.156054	0.078643	0.006906
0.085197	1.977076E-5	0.042098	1.810109E-5	463.446635	195.909724	32.092420	198.520889	0.428358	0.163812	0.085197	0.007016
0.091750	1.995419E-5	0.045618	1.822750E-5	502.191683	197.774772	33.982457	200.673037	0.399595	0.171824	0.091750	0.007081
0.098304	2.003936E-5	0.049432	1.836330E-5	544.181587	199.721454	35.966027	202.934015	0.372916	0.180081	0.098304	0.007112
0.104858	2.028013E-5	0.053565	1.850924E-5	589.675761	201.752672	38.045566	205.308562	0.348172	0.188575	0.104858	0.007197
0.117965	2.054620E-5	0.058043	1.866616E-5	638.978929	203.870932	40.223885	207.801150	0.325208	0.197301	0.117965	0.007291
0.131072	2.093776E-5	0.062896	1.883489E-5	692.409733	206.078188	42.503383	210.415677	0.303889	0.206249	0.131072	0.007430
0.144179	2.146903E-5	0.068154	1.901628E-5	750.293858	208.378042	44.887395	213.157891	0.284099	0.215413	0.144179	0.007619
0.157286	2.145664E-5	0.073853	1.921135E-5	813.028413	210.772591	47.379210	216.032115	0.265713	0.224788	0.157286	0.007615
0.170394	2.224040E-5	0.080028	1.942106E-5	880.997740	213.265311	49.982474	219.044153	0.248632	0.234368	0.170394	0.007893
0.183501	2.431157E-5	0.086719	1.964644E-5	954.654389	215.859390	52.701436	222.199725	0.232754	0.244147	0.183501	0.008628
0.399815	2.809575E-5	0.093968	1.988860E-5	1034.478738	218.557160	55.539830	225.503670	0.217988	0.254120	0.399815	0.009971
0.599723	3.318312E-5	0.101825	2.014880E-5	1120.956948	221.363321	58.502741	228.963513	0.204257	0.264284	0.599723	0.011776
0.799630	3.884669E-5	0.110338	2.042824E-5	1214.689919	224.279954	61.594755	232.584203	0.191476	0.274633	0.799630	0.013786
0.999538	4.397605E-5	0.119564	2.072836E-5	1316.236624	227.311906	64.821398	236.373679	0.179583	0.285165	0.999538	0.015606
1.199450	4.923745E-5	0.129560	2.105053E-5	1426.290523	230.462552	68.188595	240.338662	0.168506	0.295877	1.199450	0.017474
1.399350	5.450417E-5	0.140392	2.139632E-5	1545.549743	233.734958	71.701709	244.485513	0.158187	0.306765	1.399350	0.019343
1.599260	5.999135E-5	0.152131	2.176747E-5	1674.745326	237.134806	75.367989	248.823733	0.148574	0.317828	1.599260	0.021290
1.799170	6.541887E-5	0.164849	2.216562E-5	1814.766516	240.665659	79.194633	253.360907	0.139611	0.329065	1.799170	0.023216
1.999070	7.081985E-5	0.178633	2.259292E-5	1966.490863	244.332495	83.189319	258.106240	0.131252	0.340476	1.999070	0.025133
2.198980	7.622031E-5	0.193568	2.305127E-5	2130.914393	248.139486	87.360034	263.068394	0.123453	0.352060	2.198980	0.027049
2.398890	8.162100E-5	0.209752	2.354301E-5	2309.075471	252.091870	91.715610	268.257458	0.116175	0.363818	2.398890	0.028966
2.598800	8.711782E-5	0.227289	2.407054E-5	2502.135382	256.194882	96.265718	273.683952	0.109380	0.375752	2.598800	0.030917
2.798700	9.264542E-5	0.246291	2.463647E-5	2711.347329	260.453168	101.020099	279.358037	0.103033	0.387863	2.798700	0.032878
2.998610	9.823308E-5	0.266881	2.524367E-5	2938.027803	264.872583	105.989648	285.291589	0.097103	0.400153	2.998610	0.034861
3.198520	0.000104	0.289198	2.589544E-5	3183.650084	269.459137	111.186422	291.497250	0.091561	0.412628	3.198520	0.036863
3.398430	0.000110	0.313374	2.659483E-5	3449.814239	274.219414	116.623665	297.988869	0.086378	0.425293	3.398430	0.038883
3.598340	0.000116	0.339573	2.734568E-5	3738.277915	279.157680	122.313789	304.778072	0.081529	0.438153	3.598340	0.041016
3.798240	0.000122	0.367964	2.815203E-5	4050.798235	284.282896	128.272716	311.882437	0.076993	0.451215	3.798240	0.043133
3.998150	0.000128	0.398730	2.901820E-5	4389.536061	289.598043	134.514312	319.313524	0.072744	0.464486	3.998150	0.045275
4.198060	0.000133	0.432068	2.994897E-5	4756.471991	295.113173	141.056838	327.091449	0.068768	0.477975	4.198060	0.047179
4.397970	0.000139	0.468190	3.094940E-5	5154.157319	300.833880	147.918605	335.232662	0.065041	0.491695	4.397970	0.049402
4.597870	0.000145	0.507333	3.202534E-5	5585.097661	306.767543	155.119130	343.756119	0.061549	0.505657	4.597870	0.051505
4.797780	0.000151	0.549751	3.318299E-5	6052.087255	312.920466	162.678882	352.680644	0.058274	0.519873	4.797780	0.053629
4.997690	0.000157	0.595720	3.442926E-5	6558.072140	319.300981	170.621165	362.028587	0.055204	0.534358	4.997690	0.055786
5.197600	0.000163	0.645526	3.577136E-5	7106.378616	325.915835	178.970341	371.821886	0.052322	0.549131	5.197600	0.057749
5.397500	0.000169	0.699497	3.721768E-5	7700.496149	332.772709	187.752908	382.084847	0.049618	0.564208	5.397500	0.060124
5.597410	0.000176	0.757977	3.877709E-5	8344.259498	339.881420	196.999682	392.846349	0.047080	0.579613	5.597410	0.062523
5.797320	0.000182	0.821353	4.045975E-5	9042.021920	347.245776	206.739286	404.129635	0.044695	0.595369	5.797320	0.064528
5.997230	0.000189	0.890022	4.227629E-5	9797.989528	354.873936	217.004599	415.964550	0.042454	0.611498	5.997230	0.066952
6.197130	0.000195	0.964432	4.423877E-5	10617.044458	362.776537	227.835208	428.387322	0.040349	0.628032	6.197130	0.069272
6.397040	0.000201	1.045059	4.636032E-5	11504.794095	370.957220	239.268593	441.428044	0.038369	0.645003	6.397040	0.071402
6.596950	0.000207	1.132447	4.865613E-5	12466.684747	379.424696	251.348179	455.125266	0.036507	0.662445	6.596950	0.073432
6.796860	0.000213	1.227128	5.114140E-5	13509.079899	388.183011	264.118592	469.515368	0.034756	0.680397	6.796860	0.075475
6.996760	0.000219	1.329706	5.383367E-5	14638.486607	397.238779	277.630020	484.641183	0.033107	0.698900	6.996760	0.077650
7.196670	0.000225	1.440895	5.675390E-5	15862.244031	406.599033	291.939288	500.551018	0.031556	0.718003	7.196670	0.079727
7.396580	0.000230	1.561350	5.992202E-5	17188.504796	416.265001	307.103453	517.290133	0.030095	0.737759	7.396580	0.081794
7.596490	0.000238	1.691903	6.336338E-5	18625.539863	426.241197	323.187420	534.912765	0.028719	0.758227	7.596490	0.084317
7.796390	0.000245	1.833343	6.710300E-5	20182.776879	436.529297	340.261779	553.476201	0.027423	0.779471	7.796390	0.086780
7.996300	0.000250	1.986638	7.117156E-5	21870.339040	447.125711	358.398740	573.036699	0.026202	0.801561	7.996300	0.088786
8.196210	0.000256	2.152739	7.560043E-5	23698.675769	458.034311	377.686628	593.668779	0.025051	0.824582	8.196210	0.090987
8.396120	0.000263	2.332740	8.042597E-5	25680.408604	469.241118	398.206889	615.431518	0.023965	0.848619	8.396120	0.093311
