MicroRheology Analysis v9.2.8
10/03/18 5:40:58 PM

Correlation Mode:	Cross
Geometry:	Transmission
Multi-Tau Duration (s):	120
Echo Duration (s):	60
Wavelength (nm):	685.0
Temperature (°C):	24.98
Cuvette Thickness (mm):	10.00
Absorption Length (mm):	Inf
Solvent:	Water
Solvent Refractive Index:	1.329
Particle Radius (nm):	465.0
Mean Count Rate (kHz):	169.6
l* (microns):	950.09



Lag Time (s)	Mean Square Displacement (micron^2)	Fit Lag Time (s)	Mean Square Displacement Fit (micron^2)	Frequency(rad/s)	G1 (Pa)	G2 (Pa)	G* (Pa)	Complex Viscosity (Pa s)	Loss Tangent (-)	Time (s)	Creep Compliance (1/Pa)

4.012500E-6	1.320945E-6	4.012513E-6	1.198560E-6	0.079401	-1.452968	7.076590	7.224212	90.983690	-4.870437	4.012500E-6	0.000469
4.412500E-6	1.317446E-6	4.348579E-6	1.280174E-6	0.086051	-1.458492	7.816793	7.951695	92.406631	-5.359504	4.412500E-6	0.000468
4.812500E-6	1.338958E-6	4.712763E-6	1.365279E-6	0.093257	-1.439120	8.626617	8.745832	93.781563	-5.994367	4.812500E-6	0.000475
5.212500E-6	1.385518E-6	5.107420E-6	1.453916E-6	0.101068	-1.389514	9.509936	9.610912	95.093316	-6.844076	5.212500E-6	0.000492
5.612500E-6	1.498316E-6	5.535259E-6	1.546154E-6	0.109532	-1.303798	10.470868	10.551728	96.335096	-8.031053	5.612500E-6	0.000532
6.012500E-6	1.678678E-6	5.998735E-6	1.641960E-6	0.118704	-1.175420	11.513008	11.572854	97.493142	-9.794801	6.012500E-6	0.000596
6.412500E-6	1.750317E-6	6.501147E-6	1.741429E-6	0.128645	-0.997242	12.639855	12.679133	98.558751	-12.674807	6.412500E-6	0.000621
7.212500E-6	1.879173E-6	7.045614E-6	1.844558E-6	0.139422	-0.761543	13.853584	13.874499	99.514628	-18.191478	7.212500E-6	0.000667
8.012500E-6	1.988413E-6	7.635761E-6	1.951391E-6	0.151096	-0.460080	15.157180	15.164161	100.360932	-32.944640	8.012500E-6	0.000706
8.812500E-6	2.191242E-6	8.275189E-6	2.061907E-6	0.163753	-0.084018	16.551490	16.551703	101.077554	-197.000229	8.812500E-6	0.000778
9.612500E-6	2.243338E-6	8.968161E-6	2.176147E-6	0.177465	0.375871	18.037997	18.041913	101.664879	47.989923	9.612500E-6	0.000796
1.041250E-5	2.436069E-6	9.719278E-6	2.294138E-6	0.192328	0.929246	19.616087	19.638085	102.107058	21.109677	1.041250E-5	0.000865
1.121250E-5	2.598431E-6	1.053322E-5	2.415860E-6	0.208434	1.586000	21.285093	21.344099	102.402147	13.420612	1.121250E-5	0.000922
1.201250E-5	2.723219E-6	1.141553E-5	2.541354E-6	0.225890	2.356339	23.043033	23.163197	102.542055	9.779166	1.201250E-5	0.000966
1.281250E-5	2.787010E-6	1.237153E-5	2.670567E-6	0.244809	3.250390	24.886484	25.097851	102.520036	7.656461	1.281250E-5	0.000989
1.441250E-5	2.920042E-6	1.340748E-5	2.803501E-6	0.265312	4.278151	26.810996	27.150176	102.332882	6.266959	1.441250E-5	0.001036
1.601250E-5	3.005814E-6	1.453048E-5	2.940194E-6	0.287531	5.449521	28.811194	29.322042	101.978863	5.286922	1.601250E-5	0.001067
1.761250E-5	3.129507E-6	1.574745E-5	3.080585E-6	0.311610	6.774114	30.880462	31.614736	101.456074	4.558598	1.761250E-5	0.001111
1.921250E-5	3.250444E-6	1.706634E-5	3.224662E-6	0.337710	8.260644	33.010139	34.028040	100.761237	3.996073	1.921250E-5	0.001154
2.081250E-5	3.354515E-6	1.849561E-5	3.372387E-6	0.365991	9.917527	35.191694	36.562448	99.899958	3.548435	2.081250E-5	0.001191
2.241250E-5	3.481251E-6	2.004460E-5	3.523736E-6	0.396646	11.751820	37.413777	39.216017	98.868936	3.183658	2.241250E-5	0.001236
2.401250E-5	3.696171E-6	2.172321E-5	3.678656E-6	0.429864	13.769635	39.665060	41.987139	97.675380	2.880618	2.401250E-5	0.001312
2.561250E-5	3.981684E-6	2.354261E-5	3.837128E-6	0.465861	15.976225	41.933227	44.873548	96.323873	2.624727	2.561250E-5	0.001413
2.881250E-5	4.273868E-6	2.551416E-5	3.999060E-6	0.504876	18.375283	44.204647	47.871723	94.818867	2.405658	2.881250E-5	0.001517
3.201250E-5	4.541178E-6	2.765092E-5	4.164418E-6	0.547159	20.969015	46.465110	50.977505	93.167669	2.215894	3.201250E-5	0.001612
3.521250E-5	4.754087E-6	2.996665E-5	4.333126E-6	0.592986	23.757667	48.699308	54.185324	91.377016	2.049835	3.521250E-5	0.001687
3.841250E-5	4.869683E-6	3.247639E-5	4.505112E-6	0.642647	26.740150	50.892243	57.489617	89.457550	1.903215	3.841250E-5	0.001728
4.161250E-5	5.036472E-6	3.519646E-5	4.680297E-6	0.696466	29.913847	53.028570	60.884049	87.418516	1.772710	4.161250E-5	0.001787
4.481250E-5	5.221103E-6	3.814424E-5	4.858573E-6	0.754798	33.274158	55.092664	64.361256	85.269501	1.655719	4.481250E-5	0.001853
4.801250E-5	5.443739E-6	4.133828E-5	5.039814E-6	0.818020	36.813711	57.068341	67.912038	83.019982	1.550193	4.801250E-5	0.001932
5.121250E-5	5.673258E-6	4.480088E-5	5.224003E-6	0.886519	40.525339	58.942060	71.529501	80.685804	1.454450	5.121250E-5	0.002013
5.761250E-5	5.953707E-6	4.855249E-5	5.410919E-6	0.960773	44.398161	60.698023	75.202704	78.273136	1.367129	5.761250E-5	0.002113
6.401250E-5	6.241523E-6	5.261827E-5	5.600487E-6	1.041225	48.421232	62.323851	78.923242	75.798459	1.287118	6.401250E-5	0.002215
7.041250E-5	6.480821E-6	5.702517E-5	5.792602E-6	1.128424	52.581647	63.806608	82.680789	73.271027	1.213477	7.041250E-5	0.002300
7.681250E-5	6.716388E-6	6.180185E-5	5.987123E-6	1.222930	56.865283	65.135158	86.465306	70.703406	1.145429	7.681250E-5	0.002384
8.321250E-5	6.919246E-6	6.697709E-5	6.183819E-6	1.325365	61.255133	66.298501	90.264514	68.105393	1.082334	8.321250E-5	0.002456
8.961250E-5	7.063938E-6	7.258628E-5	6.382609E-6	1.436345	65.735812	67.289426	94.069463	65.492253	1.023634	8.961250E-5	0.002507
9.601250E-5	7.259548E-6	7.866574E-5	6.583324E-6	1.556639	70.290271	68.100410	97.869239	62.872149	0.968845	9.601250E-5	0.002576
0.000102	7.509406E-6	8.525350E-5	6.785751E-6	1.687026	74.899219	68.725548	101.651827	60.255059	0.917574	0.000102	0.002665
0.000115	7.727265E-6	9.239282E-5	6.989731E-6	1.828302	79.545005	69.162049	105.407765	57.653363	0.869471	0.000115	0.002742
0.000128	8.008861E-6	0.000100	7.195104E-6	1.981421	84.209247	69.407655	109.126623	55.074930	0.824228	0.000128	0.002842
0.000141	8.278040E-6	0.000109	7.401676E-6	2.147370	88.873385	69.462187	112.798378	52.528621	0.781586	0.000141	0.002938
0.000154	8.483984E-6	0.000118	7.609186E-6	2.327221	93.518686	69.327033	116.412981	50.022318	0.741317	0.000154	0.003011
0.000166	8.681533E-6	0.000127	7.817449E-6	2.522111	98.128095	69.005748	119.962145	47.564183	0.703221	0.000166	0.003081
0.000179	8.865626E-6	0.000138	8.026322E-6	2.733339	102.683874	68.502602	123.436560	45.159616	0.667121	0.000179	0.003146
0.000192	9.045530E-6	0.000150	8.235495E-6	2.962223	107.171435	67.824413	126.830073	42.815836	0.632859	0.000192	0.003210
0.000205	9.252956E-6	0.000162	8.444764E-6	3.210356	111.573272	66.977617	130.132994	40.535376	0.600302	0.000205	0.003284
0.000230	9.479444E-6	0.000176	8.653980E-6	3.479167	115.877759	65.972302	133.341665	38.325746	0.569327	0.000230	0.003364
0.000256	9.698832E-6	0.000191	8.862812E-6	3.770608	120.069801	64.816869	136.447733	36.187196	0.539827	0.000256	0.003442
0.000282	9.914171E-6	0.000207	9.071050E-6	4.086345	124.139696	63.523266	139.448448	34.125472	0.511708	0.000282	0.003519
0.000307	1.009082E-5	0.000224	9.278518E-6	4.428617	128.076134	62.101988	142.338164	32.140544	0.484883	0.000307	0.003581
0.000333	1.025630E-5	0.000243	9.484944E-6	4.799489	131.870842	60.565758	145.114196	30.235344	0.459281	0.000333	0.003640
0.000358	1.040185E-5	0.000263	9.690105E-6	5.201422	135.516707	58.926813	147.773973	28.410305	0.434831	0.000358	0.003692
0.000384	1.057129E-5	0.000285	9.893708E-6	5.637014	139.008251	57.197928	150.315990	26.665891	0.411471	0.000384	0.003752
0.000410	1.074968E-5	0.000309	1.009562E-5	6.109125	142.341258	55.391896	152.739307	25.001832	0.389149	0.000410	0.003815
0.000461	1.094417E-5	0.000335	1.029553E-5	6.620831	145.512045	53.521712	155.042990	23.417450	0.367816	0.000461	0.003884
0.000512	1.114355E-5	0.000363	1.049324E-5	7.175314	148.519408	51.600501	157.227943	21.912344	0.347433	0.000512	0.003955
0.000563	1.134106E-5	0.000393	1.068851E-5	7.776230	151.362844	49.640694	159.295038	20.484867	0.327958	0.000563	0.004025
0.000614	1.150245E-5	0.000426	1.088117E-5	8.427398	154.043813	47.654564	161.246562	19.133612	0.309357	0.000614	0.004082
0.000666	1.165137E-5	0.000462	1.107094E-5	9.133162	156.564767	45.653555	163.085172	17.856376	0.291595	0.000666	0.004135
0.000717	1.176581E-5	0.000500	1.125768E-5	9.898217	158.927649	43.649082	164.812742	16.650751	0.274648	0.000717	0.004176
0.000768	1.188981E-5	0.000542	1.144112E-5	10.727163	161.136696	41.652394	166.433040	15.515103	0.258491	0.000768	0.004220
0.000819	1.202731E-5	0.000587	1.162114E-5	11.625437	163.197522	39.673206	167.950572	14.446818	0.243099	0.000819	0.004269
0.000922	1.219500E-5	0.000637	1.179754E-5	12.599164	165.114807	37.720887	169.368724	13.442854	0.228452	0.000922	0.004328
0.001024	1.237806E-5	0.000690	1.197016E-5	13.654224	166.895407	35.804465	170.692813	12.501099	0.214532	0.001024	0.004393
0.001126	1.255732E-5	0.000748	1.213884E-5	14.797818	168.545651	33.931772	171.927315	11.618423	0.201321	0.001126	0.004457
0.001229	1.270986E-5	0.000810	1.230340E-5	16.037098	170.072955	32.110325	173.077679	10.792331	0.188803	0.001229	0.004511
0.001331	1.284869E-5	0.000878	1.246379E-5	17.380283	171.484406	30.346819	174.148876	10.019911	0.176965	0.001331	0.004560
0.001434	1.296550E-5	0.000952	1.261980E-5	18.835707	172.788102	28.647343	175.146792	9.298658	0.165795	0.001434	0.004602
0.001536	1.308321E-5	0.001032	1.277140E-5	20.413086	173.992032	27.016992	176.077100	8.625697	0.155277	0.001536	0.004643
0.001638	1.322670E-5	0.001118	1.291844E-5	22.122698	175.104143	25.460487	176.945465	7.998367	0.145402	0.001638	0.004694
0.001843	1.338928E-5	0.001212	1.306092E-5	23.975520	176.132652	23.981916	177.757822	7.414138	0.136158	0.001843	0.004752
0.002048	1.356962E-5	0.001313	1.319873E-5	25.983766	177.085095	22.584983	178.519501	6.870424	0.127537	0.002048	0.004816
0.002253	1.374754E-5	0.001423	1.333186E-5	28.159496	177.970003	21.272705	179.236854	6.365059	0.119530	0.002253	0.004879
0.002458	1.390696E-5	0.001542	1.346026E-5	30.517736	178.795305	20.047203	179.915679	5.895446	0.112124	0.002458	0.004936
0.002662	1.404794E-5	0.001671	1.358395E-5	33.073986	179.568378	18.910670	180.561391	5.459317	0.105312	0.002662	0.004986
0.002867	1.417311E-5	0.001811	1.370292E-5	35.843942	180.296810	17.864891	181.179729	5.054682	0.099086	0.002867	0.005030
0.003072	1.430670E-5	0.001963	1.381722E-5	38.845577	180.988029	16.910997	181.776370	4.679461	0.093437	0.003072	0.005078
0.003277	1.446288E-5	0.002127	1.392687E-5	42.098672	181.649257	16.049760	182.356923	4.331655	0.088356	0.003277	0.005133
0.003686	1.464643E-5	0.002306	1.403196E-5	45.624988	182.286960	15.281887	182.926411	4.009347	0.083834	0.003686	0.005198
0.004096	1.484442E-5	0.002499	1.413258E-5	49.445803	182.907866	14.607834	183.490262	3.710937	0.079864	0.004096	0.005268
0.004506	1.502465E-5	0.002708	1.422879E-5	53.586584	183.518267	14.027637	184.053603	3.434696	0.076437	0.004506	0.005332
0.004915	1.515872E-5	0.002935	1.432072E-5	58.074281	184.124267	13.541224	184.621533	3.179058	0.073544	0.004915	0.005380
0.005325	1.526198E-5	0.003181	1.440851E-5	62.938805	184.731279	13.148471	185.198617	2.942519	0.071176	0.005325	0.005417
0.005734	1.533261E-5	0.003447	1.449232E-5	68.209447	185.345006	12.849100	185.789856	2.723814	0.069325	0.005734	0.005442
0.006144	1.537928E-5	0.003736	1.457232E-5	73.922360	185.970425	12.642682	186.399668	2.521560	0.067982	0.006144	0.005458
0.006554	1.540483E-5	0.004049	1.464867E-5	80.112922	186.612480	12.528787	187.032586	2.334612	0.067138	0.006554	0.005467
0.007373	1.540573E-5	0.004388	1.472156E-5	86.821489	187.276047	12.506923	187.693210	2.161829	0.066783	0.007373	0.005468
0.008192	1.539292E-5	0.004755	1.479125E-5	94.094142	187.965116	12.576584	188.385391	2.002095	0.066909	0.008192	0.005463
0.009011	1.539799E-5	0.005153	1.485795E-5	101.973260	188.684178	12.737306	189.113611	1.854541	0.067506	0.009011	0.005465
0.009830	1.542912E-5	0.005585	1.492188E-5	110.513704	189.437123	12.988656	189.881881	1.718175	0.068564	0.009830	0.005476
0.010650	1.550481E-5	0.006053	1.498335E-5	119.770226	190.227568	13.330210	190.694054	1.592166	0.070075	0.010650	0.005503
0.011469	1.558985E-5	0.006559	1.504259E-5	129.801018	191.058972	13.761554	191.553938	1.475751	0.072028	0.011469	0.005533
0.012288	1.566786E-5	0.007109	1.509991E-5	140.669338	191.935074	14.282511	192.465744	1.368214	0.074413	0.012288	0.005561
0.013107	1.568812E-5	0.007704	1.515559E-5	152.451152	192.858812	14.892929	193.432987	1.268819	0.077222	0.013107	0.005568
0.014746	1.562840E-5	0.008349	1.520997E-5	165.218322	193.833462	15.592745	194.459623	1.176986	0.080444	0.014746	0.005547
0.016384	1.552196E-5	0.009049	1.526339E-5	179.057024	194.861675	16.381957	195.549075	1.092105	0.084070	0.016384	0.005509
0.018022	1.547708E-5	0.009806	1.531616E-5	194.051682	195.946547	17.260750	196.705320	1.013675	0.088089	0.018022	0.005493
0.019661	1.558694E-5	0.010628	1.536863E-5	210.304067	197.090758	18.229543	197.932017	0.941171	0.092493	0.019661	0.005532
0.021299	1.590691E-5	0.011518	1.542120E-5	227.918585	198.296637	19.288595	199.232543	0.874139	0.097271	0.021299	0.005645
0.022938	1.628306E-5	0.012482	1.547422E-5	247.002948	199.567186	20.438598	200.611061	0.812181	0.102415	0.022938	0.005779
0.024576	1.649678E-5	0.013528	1.552809E-5	267.688601	200.905035	21.680629	202.071480	0.754875	0.107915	0.024576	0.005855
0.026214	1.649808E-5	0.014661	1.558322E-5	290.112031	202.312158	23.015406	203.617087	0.701857	0.113762	0.026214	0.005855
0.029491	1.638548E-5	0.015888	1.564001E-5	314.408083	203.791262	24.443950	205.252004	0.652820	0.119946	0.029491	0.005815
0.032768	1.628722E-5	0.017219	1.569892E-5	340.738844	205.344691	25.967655	206.980098	0.607445	0.126459	0.032768	0.005780
0.036045	1.639950E-5	0.018661	1.576036E-5	369.272307	206.975086	27.588116	208.805628	0.565452	0.133292	0.036045	0.005820
0.039322	1.669792E-5	0.020224	1.582480E-5	400.197236	208.685169	29.307360	210.733057	0.526573	0.140438	0.039322	0.005926
0.042598	1.691620E-5	0.021918	1.589271E-5	433.720474	210.476711	31.127042	212.765924	0.490560	0.147888	0.042598	0.006004
0.045875	1.694761E-5	0.023754	1.596459E-5	470.042960	212.352581	33.049194	214.908976	0.457211	0.155634	0.045875	0.006015
0.049152	1.696637E-5	0.025743	1.604092E-5	509.407144	214.315351	35.076423	217.166814	0.426313	0.163667	0.049152	0.006021
0.052429	1.699900E-5	0.027899	1.612224E-5	552.067987	216.367739	37.211475	219.544283	0.397676	0.171983	0.052429	0.006033
0.058982	1.711209E-5	0.030235	1.620908E-5	598.304089	218.512397	39.457316	222.046274	0.371126	0.180572	0.058982	0.006073
0.065536	1.744335E-5	0.032768	1.630203E-5	648.414089	220.751796	41.816938	224.677573	0.346503	0.189430	0.065536	0.006191
0.072090	1.772445E-5	0.035512	1.640163E-5	702.714015	223.089406	44.294090	227.444168	0.323665	0.198549	0.072090	0.006291
0.078643	1.790948E-5	0.038486	1.650849E-5	761.571464	225.527422	46.892372	230.350847	0.302468	0.207923	0.078643	0.006356
0.085197	1.820355E-5	0.041709	1.662328E-5	825.346897	228.069732	49.616080	233.404280	0.282795	0.217548	0.085197	0.006461
0.091750	1.838806E-5	0.045202	1.674664E-5	894.475174	230.718537	52.469400	236.609554	0.264523	0.227417	0.091750	0.006526
0.098304	1.849634E-5	0.048988	1.687925E-5	969.375613	233.478338	55.457479	239.974304	0.247556	0.237527	0.098304	0.006564
0.104858	1.871897E-5	0.053091	1.702184E-5	1050.566867	236.351419	58.585272	243.504060	0.231783	0.247874	0.104858	0.006643
0.117965	1.898015E-5	0.057536	1.717516E-5	1138.540041	239.342932	61.858904	247.207530	0.217127	0.258453	0.117965	0.006736
0.131072	1.933357E-5	0.062355	1.734005E-5	1233.912851	242.454495	65.283641	251.089896	0.203491	0.269261	0.131072	0.006862
0.144179	1.980821E-5	0.067578	1.751733E-5	1337.234955	245.692011	68.866350	255.161005	0.190812	0.280295	0.144179	0.007030
0.157286	1.975538E-5	0.073237	1.770791E-5	1449.236657	249.058617	72.614202	259.428251	0.179010	0.291555	0.157286	0.007011
0.170394	2.043853E-5	0.079370	1.791270E-5	1570.615904	252.558499	76.534218	263.900136	0.168023	0.303036	0.170394	0.007254
0.183501	2.241524E-5	0.086018	1.813278E-5	1702.152272	256.196186	80.634389	268.585909	0.157792	0.314737	0.183501	0.007955
0.399814	2.620187E-5	0.093221	1.836913E-5	1844.698371	259.976172	84.923217	273.495087	0.148260	0.326658	0.399814	0.009299
0.599721	3.123036E-5	0.101028	1.862296E-5	1999.169393	263.904566	89.410768	278.639382	0.139378	0.338800	0.599721	0.011084
0.799629	3.694142E-5	0.109491	1.889552E-5	2166.617055	267.984665	94.106209	284.027743	0.131093	0.351163	0.799629	0.013111
0.999536	4.233436E-5	0.118661	1.918802E-5	2348.057392	272.223340	99.020586	289.673304	0.123367	0.363748	0.999536	0.015025
1.199440	4.756375E-5	0.128597	1.950186E-5	2544.727415	276.624225	104.164517	295.586212	0.116156	0.376556	1.199440	0.016881
1.399350	5.289834E-5	0.139367	1.983862E-5	2757.823009	281.194822	109.550785	301.781216	0.109427	0.389590	1.399350	0.018774
1.599260	5.838957E-5	0.151038	2.019988E-5	2988.797504	285.939918	115.192288	308.270823	0.103142	0.402855	1.599260	0.020723
1.799160	6.345404E-5	0.163690	2.058743E-5	3239.100266	290.866948	121.103615	315.070892	0.097271	0.416354	1.799160	0.022520
1.999070	6.878084E-5	0.177399	2.100306E-5	3510.411850	295.979791	127.298327	322.193886	0.091782	0.430091	1.999070	0.024411
2.198980	7.398551E-5	0.192255	2.144878E-5	3804.363353	301.288095	133.793933	329.659419	0.086653	0.444073	2.198980	0.026258
2.398890	7.914508E-5	0.208356	2.192683E-5	4123.004190	306.796808	140.607413	337.482927	0.081854	0.458308	2.398890	0.028089
2.598790	8.470067E-5	0.225804	2.243958E-5	4468.313455	312.513478	147.757079	345.683133	0.077363	0.472802	2.598790	0.030061
2.798700	9.024535E-5	0.244717	2.298969E-5	4842.542131	318.444216	155.262028	354.278162	0.073160	0.487564	2.798700	0.032029
2.998610	9.595750E-5	0.265209	2.357971E-5	5248.039811	324.598388	163.144791	363.290980	0.069224	0.502605	2.998610	0.034056
3.198510	0.000102	0.287425	2.421305E-5	5687.536347	330.984331	171.429750	372.744935	0.065537	0.517939	3.198510	0.036131
3.398420	0.000108	0.311492	2.489253E-5	6163.942425	337.606303	180.138936	382.659185	0.062080	0.533577	3.398420	0.038256
3.598330	0.000113	0.337584	2.562229E-5	6680.105685	344.475460	189.300298	393.062267	0.058841	0.549532	3.598330	0.040026
3.798240	0.000119	0.365853	2.640573E-5	7239.546066	351.600326	198.944035	403.982077	0.055802	0.565824	3.798240	0.042257
3.998140	0.000125	0.396493	2.724751E-5	7845.948202	358.985524	209.098052	415.442657	0.052950	0.582469	3.998140	0.044454
4.198050	0.000130	0.429697	2.815211E-5	8502.968562	366.642510	219.797053	427.478040	0.050274	0.599486	4.198050	0.046101
4.397960	0.000137	0.465686	2.912485E-5	9215.056689	374.580387	231.078833	440.122590	0.047761	0.616901	4.397960	0.048506
4.597860	0.000142	0.504688	3.017120E-5	9986.927456	382.804552	242.979849	453.407688	0.045400	0.634736	4.597860	0.050554
4.797770	0.000148	0.546956	3.129731E-5	10823.351328	391.323532	255.541013	467.370641	0.043182	0.653017	4.797770	0.052515
4.997680	0.000155	0.592759	3.250985E-5	11729.723115	400.146554	268.808601	482.053243	0.041097	0.671775	4.997680	0.054956
5.197590	0.000160	0.642410	3.381660E-5	12712.014182	409.282361	282.832971	497.500292	0.039136	0.691046	5.197590	0.056693
5.397490	0.000167	0.696212	3.522526E-5	13776.708044	418.735818	297.664794	513.754820	0.037292	0.710865	5.397490	0.059244
5.597400	0.000173	0.754509	3.674468E-5	14930.477910	428.513782	313.360030	530.865868	0.035556	0.731272	5.597400	0.061481
5.797310	0.000178	0.817708	3.838545E-5	16180.745943	438.627038	329.985343	548.893437	0.033923	0.752314	5.797310	0.063098
5.997210	0.000185	0.886192	4.015774E-5	17536.114989	449.074880	347.602998	567.887393	0.032384	0.774042	5.997210	0.065709
6.197120	0.000190	0.960407	4.207363E-5	19004.804662	459.862147	366.283505	587.908837	0.030935	0.796507	6.197120	0.067438
6.397030	0.000197	1.040829	4.414616E-5	20596.268055	470.993375	386.106893	609.026512	0.029570	0.819771	6.397030	0.069825
6.596940	0.000204	1.128007	4.639068E-5	22320.991455	482.473310	407.163218	631.317972	0.028284	0.843908	6.596940	0.072234
6.796840	0.000208	1.222463	4.882216E-5	24190.655456	494.292116	429.535212	654.847459	0.027070	0.868991	6.796840	0.073884
