MicroRheology Analysis v9.2.8
10/03/18 5:45:06 PM

Correlation Mode:	Cross
Geometry:	Transmission
Multi-Tau Duration (s):	120
Echo Duration (s):	60
Wavelength (nm):	685.0
Temperature (°C):	39.98
Cuvette Thickness (mm):	10.00
Absorption Length (mm):	Inf
Solvent:	Water
Solvent Refractive Index:	1.328
Particle Radius (nm):	465.0
Mean Count Rate (kHz):	169.9
l* (microns):	995.26



Lag Time (s)	Mean Square Displacement (micron^2)	Fit Lag Time (s)	Mean Square Displacement Fit (micron^2)	Frequency(rad/s)	G1 (Pa)	G2 (Pa)	G* (Pa)	Complex Viscosity (Pa s)	Loss Tangent (-)	Time (s)	Creep Compliance (1/Pa)

4.812500E-6	1.866694E-6	4.812516E-6	1.938271E-6	0.277904	0.394414	3.160528	3.185043	11.460930	8.013229	4.812500E-6	0.000631
5.212500E-6	2.057440E-6	5.304332E-6	2.093720E-6	0.306304	0.275423	3.450286	3.461262	11.300088	12.527219	5.212500E-6	0.000695
5.612500E-6	2.226622E-6	5.846351E-6	2.255293E-6	0.337603	0.155748	3.771688	3.774902	11.181487	24.216624	5.612500E-6	0.000752
6.012500E-6	2.374188E-6	6.443895E-6	2.422917E-6	0.372106	0.035875	4.130231	4.130387	11.100036	115.126991	6.012500E-6	0.000802
6.412500E-6	2.417360E-6	7.102324E-6	2.596376E-6	0.410133	-0.083348	4.531865	4.532631	11.051599	-54.372884	6.412500E-6	0.000817
7.212500E-6	2.535715E-6	7.828185E-6	2.775605E-6	0.452044	-0.200662	4.983128	4.987167	11.032493	-24.833490	7.212500E-6	0.000857
8.012500E-6	2.802676E-6	8.628071E-6	2.960384E-6	0.498242	-0.314222	5.490781	5.499764	11.038332	-17.474223	8.012500E-6	0.000947
8.812500E-6	3.108038E-6	9.509842E-6	3.150617E-6	0.549151	-0.421527	6.062529	6.077166	11.066481	-14.382293	8.812500E-6	0.001050
9.612500E-6	3.263473E-6	1.048175E-5	3.346113E-6	0.605277	-0.519220	6.706038	6.726109	11.112439	-12.915601	9.612500E-6	0.001103
1.041250E-5	3.444982E-6	1.155289E-5	3.546676E-6	0.667130	-0.602983	7.429738	7.454166	11.173480	-12.321635	1.041250E-5	0.001164
1.121250E-5	3.530987E-6	1.273342E-5	3.752128E-6	0.735301	-0.667401	8.242395	8.269371	11.246233	-12.349989	1.121250E-5	0.001193
1.201250E-5	3.684239E-6	1.403473E-5	3.962315E-6	0.810441	-0.705796	9.153136	9.180307	11.327551	-12.968537	1.201250E-5	0.001245
1.281250E-5	3.806790E-6	1.546885E-5	4.176992E-6	0.893272	-0.710061	10.170760	10.195516	11.413678	-14.323791	1.281250E-5	0.001286
1.441250E-5	3.985307E-6	1.704970E-5	4.396005E-6	0.984550	-0.670615	11.304432	11.324306	11.502009	-16.856810	1.441250E-5	0.001347
1.601250E-5	4.132318E-6	1.879208E-5	4.619113E-6	1.085153	-0.576222	12.563200	12.576407	11.589528	-21.802710	1.601250E-5	0.001396
1.761250E-5	4.308421E-6	2.071227E-5	4.846066E-6	1.196060	-0.413927	13.954874	13.961012	11.672498	-33.713396	1.761250E-5	0.001456
1.921250E-5	4.474595E-6	2.282903E-5	5.076699E-6	1.318291	-0.169110	15.486816	15.487739	11.748344	-91.578617	1.921250E-5	0.001512
2.081250E-5	4.705228E-6	2.516181E-5	5.310704E-6	1.453011	0.174547	17.164854	17.165742	11.813913	98.339356	2.081250E-5	0.001590
2.241250E-5	4.882897E-6	2.773306E-5	5.547865E-6	1.601473	0.635039	18.994115	19.004727	11.867028	29.910151	2.241250E-5	0.001650
2.401250E-5	5.075237E-6	3.056719E-5	5.787923E-6	1.765147	1.231741	20.976352	21.012485	11.904096	17.029839	2.401250E-5	0.001715
2.561250E-5	5.353328E-6	3.369127E-5	6.030619E-6	1.945513	1.985248	23.112333	23.197439	11.923556	11.642037	2.561250E-5	0.001809
2.881250E-5	5.651038E-6	3.713407E-5	6.275607E-6	2.144339	2.917077	25.399210	25.566173	11.922636	8.707076	2.881250E-5	0.001910
3.201250E-5	5.924841E-6	4.092906E-5	6.522655E-6	2.363479	4.049061	27.831220	28.124219	11.899501	6.873499	3.201250E-5	0.002002
3.521250E-5	6.186267E-6	4.511106E-5	6.771388E-6	2.604987	5.403337	30.400222	30.876682	11.852911	5.626194	3.521250E-5	0.002090
3.841250E-5	6.326535E-6	4.972104E-5	7.021575E-6	2.871226	7.001101	33.092929	33.825395	11.780820	4.726818	3.841250E-5	0.002138
4.161250E-5	6.555828E-6	5.480271E-5	7.272886E-6	3.164610	8.862674	35.894247	36.972205	11.683021	4.050047	4.161250E-5	0.002215
4.481250E-5	6.824360E-6	6.040257E-5	7.524911E-6	3.487998	11.006895	38.785082	40.316676	11.558687	3.523708	4.481250E-5	0.002306
4.801250E-5	7.094727E-6	6.657586E-5	7.777411E-6	3.844494	13.449257	41.741365	43.854578	11.407113	3.103619	4.801250E-5	0.002397
5.121250E-5	7.297353E-6	7.337841E-5	8.029934E-6	4.237312	16.203261	44.738705	47.582532	11.229414	2.761093	5.121250E-5	0.002466
5.761250E-5	7.555209E-6	8.087772E-5	8.282245E-6	4.670357	19.278171	47.747476	51.492420	11.025371	2.476764	5.761250E-5	0.002553
6.401250E-5	7.775444E-6	8.914305E-5	8.533924E-6	5.147606	22.679351	50.737364	55.575472	10.796373	2.237161	6.401250E-5	0.002627
7.041250E-5	8.011165E-6	9.825185E-5	8.784598E-6	5.673647	26.407559	53.675671	59.820037	10.543490	2.032587	7.041250E-5	0.002707
7.681250E-5	8.252735E-6	0.000108	9.033966E-6	6.253430	30.459135	56.529548	64.213306	10.268493	1.855914	7.681250E-5	0.002789
8.321250E-5	8.462855E-6	0.000119	9.281685E-6	6.892552	34.824168	59.264310	68.738498	9.972867	1.701816	8.321250E-5	0.002860
8.961250E-5	8.600685E-6	0.000132	9.527331E-6	7.596843	39.489445	61.848515	73.380209	9.659302	1.566204	8.961250E-5	0.002906
9.601250E-5	8.800641E-6	0.000145	9.770658E-6	8.373254	44.435564	64.249640	78.118727	9.329554	1.445906	9.601250E-5	0.002974
0.000102	9.020208E-6	0.000160	1.001126E-5	9.228945	49.638834	66.438847	82.934518	8.986348	1.338445	0.000102	0.003048
0.000115	9.234034E-6	0.000176	1.024891E-5	10.172060	55.071601	68.389863	87.806917	8.632167	1.241835	0.000115	0.003120
0.000128	9.517823E-6	0.000194	1.048322E-5	11.211530	60.702753	70.080148	92.714893	8.269602	1.154481	0.000128	0.003216
0.000141	9.779987E-6	0.000214	1.071394E-5	12.357255	66.497569	71.490787	97.636363	7.901137	1.075089	0.000141	0.003305
0.000154	9.992934E-6	0.000236	1.094080E-5	13.619940	72.420568	72.608466	102.551100	7.529482	1.002595	0.000154	0.003377
0.000166	1.014640E-5	0.000260	1.116357E-5	15.011867	78.433063	73.423018	107.436888	7.156797	0.936123	0.000166	0.003429
0.000179	1.027970E-5	0.000287	1.138205E-5	16.545877	84.497338	73.930858	112.274538	6.785650	0.874949	0.000179	0.003474
0.000192	1.041907E-5	0.000316	1.159603E-5	18.236831	90.575002	74.132001	117.044370	6.418021	0.818460	0.000192	0.003521
0.000205	1.061599E-5	0.000348	1.180540E-5	20.100601	96.628385	74.031766	121.728169	6.055947	0.766149	0.000205	0.003587
0.000230	1.082989E-5	0.000384	1.200995E-5	22.154678	102.622285	73.640165	126.309965	5.701278	0.717585	0.000230	0.003659
0.000256	1.105527E-5	0.000423	1.220967E-5	24.418619	108.523876	72.971012	130.775381	5.355560	0.672396	0.000256	0.003736
0.000282	1.125674E-5	0.000466	1.240450E-5	26.913934	114.303392	72.041821	135.112136	5.020156	0.630268	0.000282	0.003804
0.000307	1.142437E-5	0.000514	1.259443E-5	29.664466	119.933143	70.872944	139.308769	4.696150	0.590937	0.000307	0.003860
0.000333	1.158199E-5	0.000566	1.277947E-5	32.695708	125.390979	69.488079	143.357912	4.384610	0.554171	0.000333	0.003914
0.000358	1.171890E-5	0.000624	1.295970E-5	36.037109	130.656800	67.911863	147.252235	4.086128	0.519773	0.000358	0.003960
0.000384	1.185988E-5	0.000688	1.313526E-5	39.719575	135.715637	66.171314	150.988002	3.801350	0.487573	0.000384	0.004008
0.000410	1.203108E-5	0.000758	1.330632E-5	43.778330	140.557100	64.293635	154.563805	3.530601	0.457420	0.000410	0.004065
0.000461	1.222258E-5	0.000836	1.347306E-5	48.252724	145.172494	62.306198	157.978212	3.273975	0.429187	0.000461	0.004130
0.000512	1.241104E-5	0.000921	1.363579E-5	53.183800	149.557987	60.237126	161.233070	3.031620	0.402768	0.000512	0.004194
0.000563	1.260191E-5	0.001015	1.379475E-5	58.618244	153.714328	58.113259	164.332728	2.803440	0.378060	0.000563	0.004258
0.000614	1.276002E-5	0.001119	1.395037E-5	64.608971	157.643633	55.960247	167.281392	2.589136	0.354979	0.000614	0.004312
0.000666	1.289500E-5	0.001233	1.410300E-5	71.211501	161.351487	53.803232	170.085537	2.388456	0.333454	0.000666	0.004357
0.000717	1.300475E-5	0.001359	1.425313E-5	78.488222	164.846291	51.665474	172.753063	2.201006	0.313416	0.000717	0.004394
0.000768	1.311952E-5	0.001498	1.440126E-5	86.508384	168.138888	49.568437	175.293227	2.026315	0.294806	0.000768	0.004433
0.000819	1.324992E-5	0.001651	1.454794E-5	95.349351	171.240568	47.531927	177.714986	1.863830	0.277574	0.000819	0.004477
0.000922	1.342382E-5	0.001820	1.469379E-5	105.092654	174.165531	45.574243	180.029563	1.713056	0.261672	0.000922	0.004536
0.001024	1.361461E-5	0.002006	1.483945E-5	115.833024	176.927894	43.711415	182.247545	1.573364	0.247058	0.001024	0.004600
0.001126	1.380290E-5	0.002211	1.498566E-5	127.670394	179.543069	41.958133	184.380581	1.444192	0.233694	0.001126	0.004664
0.001229	1.395311E-5	0.002437	1.513316E-5	140.716942	182.027328	40.327041	186.440925	1.324936	0.221544	0.001229	0.004715
0.001331	1.410412E-5	0.002686	1.528279E-5	155.098172	184.396183	38.829234	188.440074	1.214973	0.210575	0.001331	0.004766
0.001434	1.423428E-5	0.002960	1.543541E-5	170.946362	186.666382	37.474447	190.390841	1.113746	0.200756	0.001434	0.004810
0.001536	1.436568E-5	0.003263	1.559198E-5	188.414962	188.854234	36.270642	192.305697	1.020650	0.192056	0.001536	0.004854
0.001638	1.451742E-5	0.003596	1.575346E-5	207.671646	190.974915	35.224813	194.196307	0.935112	0.184447	0.001638	0.004906
0.001843	1.470460E-5	0.003964	1.592092E-5	228.893717	193.044030	34.342953	196.075077	0.856621	0.177902	0.001843	0.004969
0.002048	1.491123E-5	0.004369	1.609550E-5	252.284087	195.076488	33.629839	197.954041	0.784647	0.172393	0.002048	0.005039
0.002253	1.514917E-5	0.004815	1.627838E-5	278.064625	197.086500	33.089507	199.844950	0.718700	0.167893	0.002253	0.005119
0.002458	1.536306E-5	0.005307	1.647086E-5	306.478335	199.088191	32.725325	201.759894	0.658317	0.164376	0.002458	0.005191
0.002662	1.556628E-5	0.005850	1.667424E-5	337.801349	201.093943	32.540040	203.709667	0.603046	0.161815	0.002662	0.005260
0.002867	1.572486E-5	0.006448	1.688996E-5	372.320562	203.116453	32.536117	205.705839	0.552497	0.160185	0.002867	0.005314
0.003072	1.587875E-5	0.007106	1.711963E-5	410.368223	205.167413	32.715576	207.759420	0.506276	0.159458	0.003072	0.005366
0.003277	1.606483E-5	0.007833	1.736481E-5	452.304521	207.257864	33.080280	209.881221	0.464026	0.159609	0.003277	0.005428
0.003686	1.628404E-5	0.008633	1.762731E-5	498.525754	209.398328	33.631995	212.081990	0.425418	0.160613	0.003686	0.005502
0.004096	1.652076E-5	0.009515	1.790901E-5	549.470659	211.598829	34.372508	214.372418	0.390144	0.162442	0.004096	0.005582
0.004506	1.675332E-5	0.010488	1.821189E-5	605.624802	213.868605	35.303632	216.762835	0.357916	0.165072	0.004506	0.005661
0.004915	1.691595E-5	0.011560	1.853821E-5	667.515879	216.216625	36.427353	219.263725	0.328477	0.168476	0.004915	0.005716
0.005325	1.704867E-5	0.012741	1.889025E-5	735.730875	218.651419	37.745909	221.885548	0.301585	0.172631	0.005325	0.005761
0.005734	1.714127E-5	0.014043	1.927062E-5	810.916121	221.181058	39.261809	224.638710	0.277018	0.177510	0.005734	0.005792
0.006144	1.720554E-5	0.015478	1.968212E-5	893.780442	223.813769	40.978108	227.534192	0.254575	0.183090	0.006144	0.005814
0.006554	1.727105E-5	0.017060	2.012780E-5	985.122148	226.556573	42.898016	230.582134	0.234065	0.189348	0.006554	0.005836
0.007373	1.734466E-5	0.018803	2.061084E-5	1085.784373	229.417737	45.025645	233.794369	0.215323	0.196261	0.007373	0.005861
0.008192	1.745492E-5	0.020724	2.113499E-5	1196.754132	232.403516	47.365203	237.181063	0.198187	0.203806	0.008192	0.005898
0.009011	1.762493E-5	0.022842	2.170424E-5	1319.040243	235.522122	49.921965	240.754798	0.182523	0.211963	0.009011	0.005956
0.009830	1.783146E-5	0.025177	2.232277E-5	1453.843421	238.779958	52.701661	244.526754	0.168193	0.220712	0.009830	0.006025
0.010650	1.811558E-5	0.027749	2.299548E-5	1602.406753	242.184620	55.710819	248.509729	0.155085	0.230035	0.010650	0.006121
0.011469	1.838545E-5	0.030585	2.372774E-5	1766.153841	245.743352	58.957001	252.716685	0.143089	0.239913	0.011469	0.006213
0.012288	1.867900E-5	0.033710	2.452526E-5	1946.635282	249.463966	62.448852	257.161679	0.132106	0.250332	0.012288	0.006312
0.013107	1.898044E-5	0.037155	2.539472E-5	2145.585495	253.353353	66.195578	261.858313	0.122045	0.261278	0.013107	0.006414
0.014746	1.924871E-5	0.040952	2.634315E-5	2364.855920	257.419210	70.207436	266.821539	0.112828	0.272736	0.014746	0.006504
0.016384	1.949046E-5	0.045137	2.737862E-5	2606.517147	261.669402	74.496080	272.067165	0.104380	0.284695	0.016384	0.006586
0.018022	1.982979E-5	0.049750	2.851008E-5	2872.848604	266.113563	79.075528	277.613702	0.096634	0.297150	0.018022	0.006701
0.019661	2.028518E-5	0.054834	2.974756E-5	3166.466702	270.758375	83.959784	283.477236	0.089525	0.310091	0.019661	0.006854
0.021299	2.095797E-5	0.060438	3.110208E-5	3490.041553	275.613719	89.165093	289.677986	0.083001	0.323515	0.021299	0.007082
0.022938	2.159042E-5	0.066614	3.258591E-5	3846.702722	280.688092	94.709459	296.235863	0.077010	0.337419	0.022938	0.007296
0.024576	2.208571E-5	0.073422	3.421326E-5	4239.790839	285.991009	100.612694	303.172841	0.071507	0.351804	0.024576	0.007463
0.026214	2.247991E-5	0.080924	3.599930E-5	4673.030147	291.532809	106.897408	310.513179	0.066448	0.366674	0.026214	0.007596
0.029491	2.295349E-5	0.089194	3.796192E-5	5150.574462	297.323039	113.588059	318.281694	0.061795	0.382036	0.029491	0.007756
0.032768	2.358426E-5	0.098309	4.012055E-5	5676.914415	303.373071	120.712474	326.506848	0.057515	0.397901	0.032768	0.007969
0.036045	2.446892E-5	0.108355	4.249736E-5	6257.132155	309.690947	128.299278	335.215136	0.053573	0.414282	0.036045	0.008268
0.039322	2.544371E-5	0.119428	4.511719E-5	6896.502816	316.290150	136.382905	344.441223	0.049944	0.431196	0.039322	0.008598
0.042598	2.638142E-5	0.131634	4.800816E-5	7601.315868	323.178964	144.999305	354.216658	0.046599	0.448666	0.042598	0.008914
0.045875	2.700442E-5	0.145084	5.120093E-5	8378.019341	330.371398	154.190955	364.582105	0.043517	0.466720	0.045875	0.009125
0.049152	2.769339E-5	0.159912	5.473219E-5	9234.271748	337.875407	164.002133	375.574880	0.040672	0.485392	0.049152	0.009358
0.052429	2.858349E-5	0.176253	5.864072E-5	10177.925110	345.702004	174.482373	387.238911	0.038047	0.504719	0.052429	0.009659
0.058982	2.980384E-5	0.194265	6.297209E-5	11217.924939	353.863041	185.689044	399.624164	0.035624	0.524748	0.058982	0.010071
0.065536	3.150884E-5	0.214116	6.777673E-5	12364.344571	362.367004	197.684063	412.781824	0.033385	0.545535	0.065536	0.010647
0.072090	3.341549E-5	0.235999	7.311254E-5	13627.986778	371.219678	210.533316	426.764954	0.031315	0.567139	0.072090	0.011291
0.078643	3.513985E-5	0.260112	7.904220E-5	15020.459690	380.433038	224.316432	441.641436	0.029403	0.589634	0.078643	0.011874
0.085197	3.703193E-5	0.286697	8.564106E-5	16555.587100	390.006956	239.115053	457.472878	0.027633	0.613105	0.085197	0.012513
0.091750	3.848910E-5	0.315995	9.298784E-5	18247.271213	399.949356	255.026160	474.339361	0.025995	0.637646	0.091750	0.013006
0.098304	3.996956E-5	0.348283	0.000101	20112.211275	410.255387	272.151816	492.317066	0.024479	0.663372	0.098304	0.013506
0.104858	4.195908E-5	0.383879	0.000110	22167.511593	420.920891	290.606192	511.494237	0.023074	0.690406	0.104858	0.014178
0.117965	4.463546E-5	0.423105	0.000120	24432.517151	431.941025	310.522977	531.975158	0.021773	0.718901	0.117965	0.015083
0.131072	4.805129E-5	0.466344	0.000132	26929.447761	443.295545	332.042729	553.862179	0.020567	0.749032	0.131072	0.016237
0.144179	5.209075E-5	0.514003	0.000145	29681.279524	454.965755	355.328399	577.279923	0.019449	0.781000	0.144179	0.017602
0.157286	5.189954E-5	0.566525	0.000159	32714.817840	466.914128	380.554027	602.353858	0.018412	0.815041	0.157286	0.017537
0.170394	6.285935E-5	0.624425	0.000175	36058.049902	479.097708	407.916541	629.230099	0.017450	0.851427	0.170394	0.021241
0.183501	7.982238E-5	0.688226	0.000192	39742.772607	491.457259	437.635409	658.069136	0.016558	0.890485	0.183501	0.026972
0.399815	0.000104	0.758558	0.000212	43803.879006	503.918820	469.958517	689.053833	0.015730	0.932608	0.399815	0.035159
0.599722	0.000166	0.836078	0.000234	48280.556072	516.377805	505.149368	722.372425	0.014962	0.978255	0.599722	0.056136
0.799629	0.000219	0.921529	0.000259	53213.896779	528.716550	543.514649	758.254155	0.014249	1.027989	0.799629	0.074001
0.999537	0.000275	1.015692	0.000286	58652.074438	540.774274	585.385198	796.939550	0.013588	1.082495	0.999537	0.093027
1.199440	0.000334	1.119480	0.000317	64646.064214	552.353831	631.122918	838.695947	0.012974	1.142606	1.199440	0.113000
1.399350	0.000396	1.233897	0.000351	71251.806553	563.219711	681.142822	883.839344	0.012404	1.209373	1.399350	0.133819
1.599260	0.000457	1.359986	0.000389	78533.482529	573.067836	735.886095	932.703109	0.011877	1.284117	1.599260	0.154415
1.799170	0.000518	1.498958	0.000431	86558.408189	581.541417	795.855943	985.686107	0.011388	1.368528	1.799170	0.175077
1.999070	0.000590	1.652135	0.000477	95403.924073	588.198997	861.608772	1043.239060	0.010935	1.464825	1.999070	0.199291
2.198980	0.000648	1.820994	0.000528	105154.216229	592.508068	933.759757	1105.881139	0.010517	1.575944	2.198980	0.219100
2.398890	0.000709	2.007055	0.000584	115900.756489	593.835403	1013.006212	1174.232545	0.010131	1.705870	2.398890	0.239590
2.598790	0.000766	2.212176	0.000646	127743.534361	591.445991	1100.211784	1249.109415	0.009778	1.860207	2.598790	0.258858
2.798700	0.000814	2.438231	0.000712	140798.980645	584.456609	1196.394319	1331.521271	0.009457	2.047020	2.798700	0.275027
2.998610	0.000873	2.687408	0.000785	155185.656269	571.883509	1302.991323	1422.967721	0.009169	2.278421	2.998610	0.295080
3.198520	0.000942	2.962060	0.000863	171046.849860	552.560252	1421.976000	1525.561725	0.008919	2.573432	3.198520	0.318246
3.398430	0.000984	3.264731	0.000946	188525.150945	525.172998	1556.482109	1642.693895	0.008713	2.963751	3.398430	0.332425
