MicroRheology Analysis v9.2.8
10/03/18 5:40:28 PM

Correlation Mode:	Cross
Geometry:	Transmission
Multi-Tau Duration (s):	120
Echo Duration (s):	60
Wavelength (nm):	685.0
Temperature (°C):	40.00
Cuvette Thickness (mm):	10.00
Absorption Length (mm):	Inf
Solvent:	Water
Solvent Refractive Index:	1.328
Particle Radius (nm):	465.0
Mean Count Rate (kHz):	180.2
l* (microns):	1047.69



Lag Time (s)	Mean Square Displacement (micron^2)	Fit Lag Time (s)	Mean Square Displacement Fit (micron^2)	Frequency(rad/s)	G1 (Pa)	G2 (Pa)	G* (Pa)	Complex Viscosity (Pa s)	Loss Tangent (-)	Time (s)	Creep Compliance (1/Pa)

3.212500E-6	1.585091E-6	3.212515E-6	1.640975E-6	2.501160	-1.445548	4.862540	5.072860	2.028203	-3.363805	3.212500E-6	0.000536
3.612500E-6	1.758406E-6	3.523417E-6	1.760347E-6	2.743215	-1.652643	5.412348	5.659041	2.062923	-3.274965	3.612500E-6	0.000594
4.012500E-6	1.926333E-6	3.864398E-6	1.883676E-6	3.008660	-1.864246	6.041836	6.322910	2.101570	-3.240901	4.012500E-6	0.000651
4.412500E-6	2.088826E-6	4.238367E-6	2.010862E-6	3.299833	-2.077011	6.761456	7.073278	2.143526	-3.255379	4.412500E-6	0.000706
4.812500E-6	2.238976E-6	4.648585E-6	2.141827E-6	3.619190	-2.286329	7.582429	7.919630	2.188233	-3.316421	4.812500E-6	0.000757
5.212500E-6	2.343463E-6	5.098434E-6	2.276431E-6	3.969428	-2.486195	8.516937	8.872394	2.235182	-3.425691	5.212500E-6	0.000792
5.612500E-6	2.415447E-6	5.591853E-6	2.414599E-6	4.353627	-2.668763	9.577168	9.942054	2.283626	-3.588617	5.612500E-6	0.000816
6.012500E-6	2.621542E-6	6.132998E-6	2.556208E-6	4.774923	-2.824451	10.776182	11.140181	2.333060	-3.815319	6.012500E-6	0.000886
6.412500E-6	2.687803E-6	6.726551E-6	2.701169E-6	5.237001	-2.941513	12.127061	12.478706	2.382796	-4.122730	6.412500E-6	0.000908
7.212500E-6	2.801227E-6	7.377486E-6	2.849348E-6	5.743849	-3.005885	13.642307	13.969534	2.432086	-4.538532	7.212500E-6	0.000946
8.012500E-6	2.945173E-6	8.091507E-6	3.000667E-6	6.299697	-3.001243	15.334400	15.625341	2.480332	-5.109350	8.012500E-6	0.000995
8.812500E-6	3.186957E-6	8.874614E-6	3.154990E-6	6.909427	-2.908669	17.213955	17.457966	2.526688	-5.918155	8.812500E-6	0.001077
9.612500E-6	3.289944E-6	9.733392E-6	3.312183E-6	7.578041	-2.707015	19.291048	19.480053	2.570592	-7.126318	9.612500E-6	0.001112
1.041250E-5	3.509255E-6	1.067542E-5	3.472169E-6	8.311434	-2.372630	21.573060	21.703140	2.611239	-9.092466	1.041250E-5	0.001186
1.121250E-5	3.634714E-6	1.170856E-5	3.634793E-6	9.115773	-1.879866	24.065151	24.138463	2.647988	-12.801521	1.121250E-5	0.001228
1.201250E-5	3.800808E-6	1.284167E-5	3.799932E-6	9.997967	-1.201240	26.769184	26.796122	2.680157	-22.284622	1.201250E-5	0.001284
1.281250E-5	3.870165E-6	1.408447E-5	3.967461E-6	10.965488	-0.307863	29.684084	29.685680	2.707192	-96.419683	1.281250E-5	0.001308
1.441250E-5	3.989834E-6	1.544752E-5	4.137234E-6	12.026783	0.829920	32.803597	32.814094	2.728418	39.526211	1.441250E-5	0.001348
1.601250E-5	4.065916E-6	1.694235E-5	4.309097E-6	13.190622	2.241939	36.118501	36.188014	2.743465	16.110384	1.601250E-5	0.001374
1.761250E-5	4.210120E-6	1.858197E-5	4.482931E-6	14.467204	3.957637	39.614211	39.811413	2.751839	10.009561	1.761250E-5	0.001423
1.921250E-5	4.346164E-6	2.038030E-5	4.658570E-6	15.867381	6.004751	43.271006	43.685661	2.753174	7.206128	1.921250E-5	0.001468
2.081250E-5	4.506509E-6	2.235250E-5	4.835839E-6	17.402854	8.409096	47.065708	47.811022	2.747309	5.597000	2.081250E-5	0.001523
2.241250E-5	4.654663E-6	2.451589E-5	5.014614E-6	19.086998	11.193762	50.970407	52.185081	2.734064	4.553465	2.241250E-5	0.001573
2.401250E-5	4.835808E-6	2.688851E-5	5.194688E-6	20.934388	14.377160	54.951502	56.801147	2.713294	3.822139	2.401250E-5	0.001634
2.561250E-5	5.071542E-6	2.949064E-5	5.375891E-6	22.960193	17.973642	58.974048	61.652171	2.685176	3.281141	2.561250E-5	0.001714
2.881250E-5	5.366492E-6	3.234454E-5	5.558050E-6	25.182156	21.992633	62.999377	66.727786	2.649804	2.864567	2.881250E-5	0.001813
3.201250E-5	5.605601E-6	3.547493E-5	5.741003E-6	27.619376	26.437011	66.985959	72.014125	2.607377	2.533795	3.201250E-5	0.001894
3.521250E-5	5.761312E-6	3.890813E-5	5.924541E-6	30.292285	31.303564	70.891828	77.495576	2.558261	2.264657	3.521250E-5	0.001947
3.841250E-5	5.842529E-6	4.267308E-5	6.108462E-6	33.223625	36.583679	74.675659	83.155394	2.502900	2.041229	3.841250E-5	0.001974
4.161250E-5	5.971145E-6	4.680327E-5	6.292645E-6	36.438981	42.262085	78.295931	88.973798	2.441720	1.852628	4.161250E-5	0.002018
4.481250E-5	6.172571E-6	5.133254E-5	6.476836E-6	39.965792	48.316063	81.712232	94.928030	2.375232	1.691202	4.481250E-5	0.002086
4.801250E-5	6.420113E-6	5.630066E-5	6.660899E-6	43.833217	54.719407	84.889696	100.997396	2.304129	1.551364	4.801250E-5	0.002169
5.121250E-5	6.596594E-6	6.174925E-5	6.844621E-6	48.075625	61.438747	87.793931	107.156400	2.228913	1.428967	5.121250E-5	0.002229
5.761250E-5	6.800184E-6	6.772474E-5	7.027828E-6	52.727838	68.438282	90.398233	113.382711	2.150339	1.320872	5.761250E-5	0.002298
6.401250E-5	6.987591E-6	7.427871E-5	7.210368E-6	57.831041	75.676354	92.677831	119.649868	2.068956	1.224660	6.401250E-5	0.002361
7.041250E-5	7.138056E-6	8.146729E-5	7.392084E-6	63.426958	83.111849	94.617189	125.936460	1.985535	1.138432	7.041250E-5	0.002412
7.681250E-5	7.316143E-6	8.935210E-5	7.572827E-6	69.565902	90.698490	96.202554	132.216290	1.900590	1.060685	7.681250E-5	0.002472
8.321250E-5	7.498271E-6	9.799903E-5	7.752428E-6	76.297624	98.392443	97.430026	138.469068	1.814854	0.990219	8.321250E-5	0.002534
8.961250E-5	7.596945E-6	0.000107	7.930787E-6	83.682035	106.148265	98.298645	144.672312	1.728834	0.926050	8.961250E-5	0.002567
9.601250E-5	7.774130E-6	0.000118	8.107775E-6	91.780820	113.921317	98.814475	150.805726	1.643107	0.867392	9.601250E-5	0.002627
0.000102	7.970115E-6	0.000129	8.283341E-6	100.662046	121.671517	98.989652	156.853146	1.558215	0.813581	0.000102	0.002693
0.000115	8.126302E-6	0.000142	8.457383E-6	110.403799	129.360175	98.839678	162.798455	1.474573	0.764066	0.000115	0.002746
0.000128	8.327587E-6	0.000156	8.629875E-6	121.088841	136.951652	98.385060	168.627918	1.392597	0.718393	0.000128	0.002814
0.000141	8.522244E-6	0.000171	8.800743E-6	132.808061	144.414031	97.649949	174.329932	1.312646	0.676180	0.000141	0.002880
0.000154	8.642778E-6	0.000187	8.970026E-6	145.660539	151.720621	96.661834	179.896240	1.235038	0.637104	0.000154	0.002920
0.000166	8.790926E-6	0.000205	9.137756E-6	159.757026	158.849047	95.450086	185.320637	1.160016	0.600885	0.000166	0.002970
0.000179	8.914922E-6	0.000225	9.303988E-6	175.218447	165.780007	94.045669	190.598003	1.087774	0.567292	0.000179	0.003012
0.000192	9.040399E-6	0.000247	9.468765E-6	192.173553	172.501318	92.481444	195.728185	1.018497	0.536120	0.000192	0.003055
0.000205	9.206595E-6	0.000271	9.632267E-6	210.771710	179.003075	90.789380	200.710768	0.952266	0.507195	0.000205	0.003111
0.000230	9.364808E-6	0.000297	9.794609E-6	231.169001	185.280933	89.002434	205.549160	0.889173	0.480365	0.000230	0.003164
0.000256	9.520884E-6	0.000326	9.955987E-6	253.543048	191.332543	87.152215	210.246642	0.829234	0.455501	0.000256	0.003217
0.000282	9.691668E-6	0.000357	1.011664E-5	278.079843	197.160522	85.270253	214.809887	0.772476	0.432492	0.000282	0.003275
0.000307	9.839129E-6	0.000392	1.027681E-5	304.990277	202.770939	83.386167	219.247135	0.718866	0.411233	0.000307	0.003324
0.000333	9.975859E-6	0.000430	1.043684E-5	334.506445	208.172251	81.528026	223.567675	0.668351	0.391637	0.000333	0.003371
0.000358	1.009244E-5	0.000471	1.059703E-5	366.881207	213.374487	79.722335	227.781304	0.620858	0.373626	0.000358	0.003410
0.000384	1.021453E-5	0.000517	1.075782E-5	402.386211	218.390440	77.994035	231.899663	0.576311	0.357131	0.000384	0.003451
0.000410	1.035439E-5	0.000567	1.091960E-5	441.324372	223.235481	76.365885	235.936069	0.534609	0.342087	0.000410	0.003499
0.000461	1.050855E-5	0.000622	1.108289E-5	484.036135	227.924858	74.858510	239.903183	0.495631	0.328435	0.000461	0.003551
0.000512	1.068876E-5	0.000682	1.124821E-5	530.882314	232.474514	73.491133	243.814163	0.459262	0.316126	0.000512	0.003612
0.000563	1.086746E-5	0.000748	1.141612E-5	582.255141	236.902513	72.281199	247.684018	0.425387	0.305109	0.000563	0.003672
0.000614	1.102235E-5	0.000820	1.158729E-5	638.601596	241.227061	71.244077	251.527759	0.393873	0.295340	0.000614	0.003724
0.000666	1.117968E-5	0.000900	1.176240E-5	700.409993	245.464680	70.393644	255.358913	0.364585	0.286777	0.000666	0.003777
0.000717	1.130785E-5	0.000987	1.194217E-5	768.187625	249.634402	69.742846	259.193748	0.337409	0.279380	0.000717	0.003821
0.000768	1.143236E-5	0.001082	1.212744E-5	842.532362	253.753517	69.302691	263.046974	0.312210	0.273110	0.000768	0.003863
0.000819	1.158004E-5	0.001187	1.231909E-5	924.072085	257.839388	69.083449	266.933836	0.288867	0.267932	0.000819	0.003913
0.000922	1.175978E-5	0.001302	1.251805E-5	1013.503174	261.908573	69.094253	270.869187	0.267260	0.263811	0.000922	0.003973
0.001024	1.195952E-5	0.001428	1.272533E-5	1111.578902	265.978666	69.343687	274.869420	0.247278	0.260711	0.001024	0.004041
0.001126	1.216380E-5	0.001566	1.294209E-5	1219.164858	270.064533	69.839196	278.948678	0.228803	0.258602	0.001126	0.004110
0.001229	1.235650E-5	0.001717	1.316944E-5	1337.150851	274.181761	70.588093	283.122442	0.211736	0.257450	0.001229	0.004175
0.001331	1.254564E-5	0.001884	1.340870E-5	1466.547697	278.345865	71.597339	287.406680	0.195975	0.257224	0.001331	0.004239
0.001434	1.270258E-5	0.002066	1.366130E-5	1608.482231	282.570555	72.873411	291.816128	0.181423	0.257895	0.001434	0.004292
0.001536	1.286780E-5	0.002266	1.392870E-5	1764.147205	286.869396	74.422751	296.365984	0.167994	0.259431	0.001536	0.004348
0.001638	1.307499E-5	0.002485	1.421250E-5	1934.861830	291.256704	76.252223	301.072863	0.155604	0.261804	0.001638	0.004418
0.001843	1.332553E-5	0.002726	1.451451E-5	2122.127434	295.744003	78.368189	305.951121	0.144172	0.264987	0.001843	0.004502
0.002048	1.362919E-5	0.002989	1.483668E-5	2327.487397	300.344717	80.777873	311.017706	0.133628	0.268951	0.002048	0.004605
0.002253	1.394052E-5	0.003279	1.518103E-5	2552.740281	305.070199	83.488499	316.288090	0.123901	0.273670	0.002253	0.004710
0.002458	1.421637E-5	0.003596	1.554985E-5	2799.775044	309.932867	86.508134	321.779488	0.114930	0.279119	0.002458	0.004803
0.002662	1.447429E-5	0.003944	1.594566E-5	3070.734402	314.943723	89.845177	327.508327	0.106655	0.285274	0.002662	0.004891
0.002867	1.469607E-5	0.004326	1.637121E-5	3367.903169	320.114465	93.508951	333.492421	0.099021	0.292111	0.002867	0.004966
0.003072	1.494283E-5	0.004744	1.682940E-5	3693.836987	325.456610	97.509810	339.750156	0.091978	0.299609	0.003072	0.005049
0.003277	1.526443E-5	0.005204	1.732358E-5	4051.339707	330.980067	101.858263	346.298875	0.085478	0.307747	0.003277	0.005158
0.003686	1.565823E-5	0.005707	1.785729E-5	4443.374319	336.698102	106.567353	353.160321	0.079480	0.316507	0.003686	0.005291
0.004096	1.611328E-5	0.006260	1.843466E-5	4873.433082	342.620369	111.650263	360.353296	0.073942	0.325872	0.004096	0.005444
0.004506	1.659576E-5	0.006865	1.905999E-5	5345.081709	348.758226	117.121468	367.899087	0.068829	0.335824	0.004506	0.005607
0.004915	1.703978E-5	0.007530	1.973820E-5	5862.335898	355.123374	122.997515	375.820435	0.064108	0.346352	0.004915	0.005757
0.005325	1.747567E-5	0.008258	2.047476E-5	6429.623806	361.728895	129.297600	384.142764	0.059746	0.357443	0.005325	0.005905
0.005734	1.784829E-5	0.009058	2.127566E-5	7051.922242	368.584773	136.041152	392.889208	0.055714	0.369091	0.005734	0.006031
0.006144	1.826359E-5	0.009934	2.214757E-5	7734.385537	375.704157	143.250574	402.087479	0.051987	0.381286	0.006144	0.006171
0.006554	1.877089E-5	0.010896	2.309791E-5	8482.928017	383.097933	150.949829	411.764346	0.048540	0.394024	0.006554	0.006342
0.007373	1.941892E-5	0.011950	2.413528E-5	9303.795278	390.780565	159.167039	421.952125	0.045353	0.407305	0.007373	0.006561
0.008192	2.020957E-5	0.013107	2.526896E-5	10204.182318	398.763756	167.932277	432.682080	0.042402	0.421132	0.008192	0.006828
0.009011	2.108148E-5	0.014375	2.650920E-5	11191.679326	407.061754	177.279607	443.990237	0.039671	0.435510	0.009011	0.007123
0.009830	2.191997E-5	0.015766	2.786821E-5	12274.865271	415.686019	187.245249	455.911888	0.037142	0.450449	0.009830	0.007406
0.010650	2.278135E-5	0.017292	2.935862E-5	13462.807615	424.649981	197.869761	468.486978	0.034799	0.465960	0.010650	0.007697
0.011469	2.352256E-5	0.018965	3.099597E-5	14765.651949	433.966871	209.198573	481.758537	0.032627	0.482061	0.011469	0.007948
0.012288	2.435234E-5	0.020801	3.279645E-5	16194.527418	443.650666	221.282781	495.774125	0.030614	0.498777	0.012288	0.008228
0.013107	2.540550E-5	0.022814	3.477954E-5	17761.780871	453.713949	234.178456	510.583878	0.028746	0.516137	0.013107	0.008584
0.014746	2.673091E-5	0.025021	3.696593E-5	19480.822116	464.166871	247.945637	526.239416	0.027013	0.534173	0.014746	0.009032
0.016384	2.832286E-5	0.027443	3.938051E-5	21366.027158	475.023939	262.654752	542.803151	0.025405	0.552930	0.016384	0.009570
0.018022	3.009038E-5	0.030099	4.204998E-5	23433.979152	486.290415	278.378436	560.332866	0.023911	0.572453	0.018022	0.010167
0.019661	3.178831E-5	0.033012	4.500508E-5	25701.571237	497.979906	295.203447	578.903327	0.022524	0.592802	0.019661	0.010741
0.021299	3.354028E-5	0.036206	4.828134E-5	28188.919625	510.097344	313.223578	598.588598	0.021235	0.614047	0.021299	0.011333
0.022938	3.504125E-5	0.039711	5.191844E-5	30917.123151	522.644672	332.540039	619.467780	0.020036	0.636264	0.022938	0.011840
0.024576	3.672054E-5	0.043554	5.596077E-5	33909.064611	535.624383	353.268779	641.632535	0.018922	0.659546	0.024576	0.012407
0.026214	3.888136E-5	0.047768	6.045939E-5	37190.609214	549.032707	375.538319	665.181135	0.017886	0.684000	0.026214	0.013137
0.029491	4.165733E-5	0.052392	6.547334E-5	40789.864763	562.860948	399.491269	690.221502	0.016921	0.709751	0.029491	0.014075
0.032768	4.498155E-5	0.057462	7.106672E-5	44737.733542	577.089107	425.280780	716.865106	0.016024	0.736941	0.032768	0.015199
0.036045	4.864633E-5	0.063022	7.731434E-5	49066.994375	591.697867	453.085216	745.246656	0.015188	0.765737	0.036045	0.016437
0.039322	5.206728E-5	0.069122	8.430190E-5	53815.618526	606.649823	483.097709	775.504612	0.014410	0.796337	0.039322	0.017593
0.042598	5.555143E-5	0.075811	9.212413E-5	59023.698720	621.896851	515.531303	807.792188	0.013686	0.828966	0.042598	0.018770
0.045875	5.857840E-5	0.083148	0.000101	64735.327265	637.379730	550.628684	842.285503	0.013011	0.863894	0.045875	0.019793
0.049152	6.206745E-5	0.091195	0.000111	71000.187022	653.014910	588.654520	879.171551	0.012383	0.901441	0.049152	0.020972
0.052429	6.659940E-5	0.100020	0.000122	77871.518125	668.696682	629.900026	918.656244	0.011797	0.941982	0.052429	0.022503
0.058982	7.243130E-5	0.109700	0.000134	85407.582681	684.294163	674.691315	960.971837	0.011252	0.985967	0.058982	0.024473
0.065536	7.947618E-5	0.120316	0.000148	93673.135405	699.641621	723.389324	1006.374936	0.010743	1.033943	0.065536	0.026854
0.072090	8.735962E-5	0.131960	0.000164	102739.107716	714.527004	776.381799	1055.138634	0.010270	1.086567	0.072090	0.029517
0.078643	9.498798E-5	0.144730	0.000181	112680.956717	728.704130	834.116686	1107.592143	0.009829	1.144658	0.078643	0.032095
0.085197	0.000103	0.158738	0.000201	123586.368533	741.854461	897.074295	1164.083473	0.009419	1.209232	0.085197	0.034798
0.091750	0.000111	0.174099	0.000224	135547.529193	753.593714	965.776649	1225.001233	0.009037	1.281561	0.091750	0.037409
0.098304	0.000118	0.190949	0.000249	148664.602865	763.468973	1040.824213	1290.813664	0.008683	1.363283	0.098304	0.040010
0.104858	0.000126	0.209427	0.000277	163052.395007	770.920660	1122.868275	1362.039584	0.008353	1.456529	0.104858	0.042598
0.117965	0.000142	0.229694	0.000308	178831.588115	775.299309	1212.665719	1439.321772	0.008048	1.564126	0.117965	0.048077
0.131072	0.000160	0.251925	0.000344	196138.670990	775.833024	1311.090672	1523.442034	0.007767	1.689913	0.131072	0.054147
0.144179	0.000181	0.276305	0.000384	215119.246141	771.647124	1419.256593	1615.465432	0.007510	1.839256	0.144179	0.061305
0.157286	0.000201	0.303046	0.000428	235939.951062	761.730463	1538.587460	1716.824007	0.007277	2.019858	0.157286	0.067795
0.170394	0.000220	0.332374	0.000478	258772.504178	744.985979	1671.169841	1829.702912	0.007071	2.243223	0.170394	0.074264
0.183501	0.000239	0.364536	0.000534	283815.399718	720.177692	1820.170441	1957.466818	0.006897	2.527391	0.183501	0.080863
