MicroRheology Analysis v9.2.8
10/03/18 5:35:59 PM

Correlation Mode:	Cross
Geometry:	Transmission
Multi-Tau Duration (s):	120
Echo Duration (s):	60
Wavelength (nm):	685.0
Temperature (°C):	19.99
Cuvette Thickness (mm):	10.00
Absorption Length (mm):	Inf
Solvent:	Water
Solvent Refractive Index:	1.329
Particle Radius (nm):	465.0
Mean Count Rate (kHz):	170.1
l* (microns):	989.03



Lag Time (s)	Mean Square Displacement (micron^2)	Fit Lag Time (s)	Mean Square Displacement Fit (micron^2)	Frequency(rad/s)	G1 (Pa)	G2 (Pa)	G* (Pa)	Complex Viscosity (Pa s)	Loss Tangent (-)	Time (s)	Creep Compliance (1/Pa)

4.812500E-6	1.434029E-6	4.812522E-6	1.669169E-6	0.079401	-1.238549	8.556557	8.645731	108.887028	-6.908536	4.812500E-6	0.000518
5.212500E-6	1.679246E-6	5.214965E-6	1.757285E-6	0.086041	-1.143742	9.423921	9.493073	110.332259	-8.239552	5.212500E-6	0.000606
5.612500E-6	1.882743E-6	5.651069E-6	1.848416E-6	0.093237	-1.009995	10.361787	10.410895	111.660984	-10.259248	5.612500E-6	0.000680
6.012500E-6	2.044438E-6	6.123687E-6	1.942602E-6	0.101033	-0.831332	11.373053	11.403396	112.868469	-13.680517	6.012500E-6	0.000738
6.412500E-6	2.141349E-6	6.635788E-6	2.039859E-6	0.109481	-0.601254	12.459911	12.474410	113.940827	-20.723218	6.412500E-6	0.000773
7.212500E-6	2.202420E-6	7.190685E-6	2.140215E-6	0.118637	-0.312882	13.624188	13.627780	114.869380	-43.544154	7.212500E-6	0.000795
8.012500E-6	2.368556E-6	7.792099E-6	2.243720E-6	0.128559	0.041027	14.866963	14.867019	115.643468	362.369854	8.012500E-6	0.000855
8.812500E-6	2.581176E-6	8.443647E-6	2.350351E-6	0.139309	0.468071	16.189115	16.195880	116.258328	34.586863	8.812500E-6	0.000932
9.612500E-6	2.633723E-6	9.149774E-6	2.460166E-6	0.150959	0.976190	17.590716	17.617782	116.705436	18.019765	9.612500E-6	0.000951
1.041250E-5	2.769143E-6	9.914936E-6	2.573163E-6	0.163585	1.573430	19.070754	19.135552	116.976350	12.120497	1.041250E-5	0.001000
1.121250E-5	2.831136E-6	1.074413E-5	2.689361E-6	0.177264	2.267969	20.627781	20.752085	117.068624	9.095266	1.121250E-5	0.001022
1.201250E-5	2.934456E-6	1.164257E-5	2.808750E-6	0.192087	3.068128	22.259590	22.470042	116.978657	7.255104	1.201250E-5	0.001059
1.281250E-5	3.029226E-6	1.261617E-5	2.931346E-6	0.208149	3.982296	23.963304	24.291945	116.704550	6.017459	1.281250E-5	0.001093
1.441250E-5	3.150873E-6	1.367120E-5	3.057147E-6	0.225559	5.018278	25.733823	26.218557	116.238020	5.128019	1.441250E-5	0.001137
1.601250E-5	3.204275E-6	1.481450E-5	3.186146E-6	0.244420	6.183917	27.566789	28.251880	115.587636	4.457820	1.601250E-5	0.001157
1.761250E-5	3.295718E-6	1.605326E-5	3.318314E-6	0.264860	7.486722	29.456027	30.392574	114.749758	3.934436	1.761250E-5	0.001190
1.921250E-5	3.340170E-6	1.739594E-5	3.453679E-6	0.287010	8.933401	31.394282	32.640567	113.726182	3.514259	1.921250E-5	0.001206
2.081250E-5	3.455410E-6	1.885039E-5	3.592139E-6	0.311011	10.530095	33.373692	34.995517	112.521894	3.169363	2.081250E-5	0.001247
2.241250E-5	3.608573E-6	2.042706E-5	3.733764E-6	0.337016	12.282560	35.386026	37.457071	111.143341	2.880998	2.241250E-5	0.001303
2.401250E-5	3.845292E-6	2.213497E-5	3.878418E-6	0.365200	14.195285	37.421281	40.023223	109.592600	2.636177	2.401250E-5	0.001388
2.561250E-5	4.148964E-6	2.398633E-5	4.026159E-6	0.395739	16.271941	39.469459	42.692087	107.879308	2.425615	2.561250E-5	0.001498
2.881250E-5	4.435243E-6	2.599198E-5	4.176850E-6	0.428834	18.515299	41.519817	45.461099	106.010912	2.242460	2.881250E-5	0.001601
3.201250E-5	4.614115E-6	2.816562E-5	4.330497E-6	0.464701	20.926308	43.560245	48.326032	103.993761	2.081602	3.201250E-5	0.001665
3.521250E-5	4.749427E-6	3.052109E-5	4.487022E-6	0.503561	23.505086	45.579229	51.283089	101.840905	1.939122	3.521250E-5	0.001714
3.841250E-5	4.820360E-6	3.307313E-5	4.646331E-6	0.545666	26.251081	47.565211	54.328340	99.563291	1.811933	3.841250E-5	0.001740
4.161250E-5	4.976392E-6	3.583907E-5	4.808402E-6	0.591301	29.161811	49.505558	57.456170	97.169123	1.697616	4.161250E-5	0.001796
4.481250E-5	5.182848E-6	3.883629E-5	4.973123E-6	0.640753	32.233011	51.387665	60.660194	94.670155	1.594256	4.481250E-5	0.001871
4.801250E-5	5.430640E-6	4.208372E-5	5.140384E-6	0.694333	35.459797	53.199886	63.934537	92.080540	1.500287	4.801250E-5	0.001960
5.121250E-5	5.643909E-6	4.560352E-5	5.310151E-6	0.752393	38.836203	54.930624	67.272759	89.411713	1.414418	5.121250E-5	0.002037
5.761250E-5	5.868528E-6	4.941719E-5	5.482260E-6	0.815317	42.354047	56.567946	70.666809	86.674069	1.335597	5.761250E-5	0.002118
6.401250E-5	6.092900E-6	5.354963E-5	5.656615E-6	0.883494	46.004847	58.101670	74.109716	83.882513	1.262947	6.401250E-5	0.002199
7.041250E-5	6.310009E-6	5.802762E-5	5.833106E-6	0.957380	49.778340	59.521288	77.592957	81.047150	1.195727	7.041250E-5	0.002278
7.681250E-5	6.517644E-6	6.288024E-5	6.011614E-6	1.037441	53.663497	60.817780	81.108405	78.181236	1.133317	7.681250E-5	0.002353
8.321250E-5	6.709262E-6	6.813897E-5	6.192011E-6	1.124195	57.648418	61.982856	84.647590	75.296184	1.075187	8.321250E-5	0.002422
8.961250E-5	6.854093E-6	7.383616E-5	6.374110E-6	1.218203	61.720719	63.009471	88.202271	72.403598	1.020880	8.961250E-5	0.002474
9.601250E-5	7.058512E-6	8.001097E-5	6.557842E-6	1.320082	65.866649	63.891168	91.763265	69.513285	0.970008	9.601250E-5	0.002548
0.000102	7.287050E-6	8.670308E-5	6.743044E-6	1.430478	70.072236	64.623160	95.321934	66.636433	0.922236	0.000102	0.002630
0.000115	7.512441E-6	9.395226E-5	6.929469E-6	1.550103	74.323666	65.201927	98.870110	63.782949	0.877270	0.000115	0.002712
0.000128	7.780854E-6	0.000102	7.117064E-6	1.679746	78.605208	65.624344	102.397917	60.960365	0.834860	0.000128	0.002808
0.000141	8.043579E-6	0.000110	7.305604E-6	1.820192	82.903563	65.890229	105.898645	58.179945	0.794782	0.000141	0.002903
0.000154	8.242562E-6	0.000120	7.494961E-6	1.972407	87.204205	65.999022	109.363816	55.446874	0.756833	0.000154	0.002975
0.000166	8.443196E-6	0.000130	7.684870E-6	2.137361	91.492376	65.951984	112.785279	52.768474	0.720847	0.000166	0.003048
0.000179	8.602269E-6	0.000140	7.875234E-6	2.316097	95.754749	65.751895	116.156289	50.151734	0.686670	0.000179	0.003105
0.000192	8.763733E-6	0.000152	8.065847E-6	2.509801	99.976834	65.401859	119.468701	47.600861	0.654170	0.000192	0.003163
0.000205	8.954048E-6	0.000165	8.256501E-6	2.719653	104.147451	64.907346	122.717786	45.122596	0.623225	0.000205	0.003232
0.000230	9.173448E-6	0.000179	8.447031E-6	2.947112	108.253451	64.273106	125.896155	42.718487	0.593728	0.000230	0.003311
0.000256	9.388624E-6	0.000194	8.637202E-6	3.193556	112.284384	63.506324	128.999365	40.393644	0.565585	0.000256	0.003389
0.000282	9.610029E-6	0.000210	8.826836E-6	3.460648	116.228637	62.613783	132.021142	38.149260	0.538712	0.000282	0.003469
0.000307	9.808544E-6	0.000227	9.015773E-6	3.749992	120.078265	61.604207	134.958764	35.989076	0.513034	0.000307	0.003540
0.000333	9.981945E-6	0.000246	9.203779E-6	4.063594	123.825007	60.485549	137.808323	33.912916	0.488476	0.000333	0.003603
0.000358	1.012420E-5	0.000267	9.390720E-6	4.403474	127.460265	59.266879	140.565579	31.921517	0.464983	0.000358	0.003654
0.000384	1.027924E-5	0.000289	9.576298E-6	4.771698	130.978177	57.958152	143.228594	30.016273	0.442502	0.000384	0.003710
0.000410	1.043762E-5	0.000313	9.760418E-6	5.170695	134.374446	56.568859	145.796185	28.196633	0.420979	0.000410	0.003767
0.000461	1.061413E-5	0.000340	9.942873E-6	5.603148	137.643611	55.108602	148.265713	26.461143	0.400372	0.000461	0.003831
0.000512	1.081700E-5	0.000368	1.012341E-5	6.071652	140.783773	53.587842	150.637736	24.810009	0.380639	0.000512	0.003904
0.000563	1.099864E-5	0.000399	1.030196E-5	6.579440	143.791933	52.016031	152.911044	23.240737	0.361745	0.000563	0.003970
0.000614	1.115011E-5	0.000432	1.047827E-5	7.129612	146.667791	50.403364	155.086879	21.752500	0.343657	0.000614	0.004025
0.000666	1.129687E-5	0.000468	1.065222E-5	7.725902	149.410579	48.759180	157.165451	20.342666	0.326344	0.000666	0.004078
0.000717	1.142409E-5	0.000507	1.082358E-5	8.372028	152.020525	47.093265	159.147779	19.009467	0.309782	0.000717	0.004124
0.000768	1.154144E-5	0.000550	1.099225E-5	9.072042	154.500240	45.414719	161.036706	17.750878	0.293946	0.000768	0.004166
0.000819	1.167621E-5	0.000596	1.115809E-5	9.830782	156.850970	43.732002	162.833396	16.563626	0.278812	0.000819	0.004215
0.000922	1.181640E-5	0.000646	1.132095E-5	10.652812	159.076201	42.053862	164.541074	15.445788	0.264363	0.000922	0.004265
0.001024	1.197369E-5	0.000700	1.148070E-5	11.543650	161.179487	40.387952	166.162612	14.394287	0.250577	0.001024	0.004322
0.001126	1.214320E-5	0.000758	1.163722E-5	12.509044	163.164499	38.741897	167.700889	13.406372	0.237441	0.001126	0.004383
0.001229	1.228733E-5	0.000822	1.179038E-5	13.555025	165.036538	37.122720	169.160147	12.479516	0.224936	0.001229	0.004435
0.001331	1.241954E-5	0.000890	1.194011E-5	14.688732	166.799856	35.536826	170.543419	11.610493	0.213051	0.001331	0.004483
0.001434	1.252884E-5	0.000965	1.208633E-5	15.917029	168.460178	33.990534	171.855136	10.796936	0.201772	0.001434	0.004522
0.001536	1.264005E-5	0.001045	1.222896E-5	17.248081	170.023015	32.489242	173.099326	10.035860	0.191087	0.001536	0.004562
0.001638	1.278198E-5	0.001133	1.236791E-5	18.690348	171.494555	31.038001	174.280636	9.324633	0.180985	0.001638	0.004614
0.001843	1.294289E-5	0.001228	1.250318E-5	20.253406	172.880603	29.641350	175.403285	8.660434	0.171456	0.001843	0.004672
0.002048	1.310725E-5	0.001330	1.263471E-5	21.947094	174.187638	28.303462	176.472148	8.040798	0.162488	0.002048	0.004731
0.002253	1.327081E-5	0.001441	1.276246E-5	23.782688	175.421518	27.028045	177.491477	7.463054	0.154075	0.002253	0.004790
0.002458	1.340459E-5	0.001562	1.288646E-5	25.771490	176.588844	25.818482	178.466282	6.924950	0.146207	0.002458	0.004838
0.002662	1.353321E-5	0.001693	1.300669E-5	27.926718	177.695625	24.677610	179.401002	6.423992	0.138876	0.002662	0.004885
0.002867	1.365750E-5	0.001834	1.312317E-5	30.261728	178.748710	23.607874	180.300951	5.958052	0.132073	0.002867	0.004930
0.003072	1.378466E-5	0.001988	1.323597E-5	32.792678	179.753873	22.611323	181.170435	5.524722	0.125790	0.003072	0.004976
0.003277	1.392931E-5	0.002154	1.334508E-5	35.535031	180.717226	21.690008	182.014208	5.122106	0.120022	0.003277	0.005028
0.003686	1.408766E-5	0.002334	1.345060E-5	38.506396	181.645092	20.845360	182.837273	4.748231	0.114759	0.003686	0.005085
0.004096	1.425210E-5	0.002529	1.355260E-5	41.726850	182.542970	20.078647	183.643916	4.401097	0.109994	0.004096	0.005144
0.004506	1.440098E-5	0.002741	1.365118E-5	45.216059	183.416865	19.390980	184.439032	4.079060	0.105721	0.004506	0.005198
0.004915	1.451739E-5	0.002970	1.374642E-5	48.997516	184.272172	18.783127	185.226994	3.780334	0.101931	0.004915	0.005240
0.005325	1.460525E-5	0.003218	1.383846E-5	53.095058	185.114340	18.255787	186.012346	3.503383	0.098619	0.005325	0.005272
0.005734	1.466729E-5	0.003487	1.392741E-5	57.535414	185.948325	17.809475	186.799242	3.246683	0.095776	0.005734	0.005294
0.006144	1.470837E-5	0.003779	1.401344E-5	62.345929	186.779637	17.444521	187.592495	3.008897	0.093396	0.006144	0.005309
0.006554	1.472975E-5	0.004095	1.409672E-5	67.560327	187.612672	17.161128	188.395910	2.788558	0.091471	0.006554	0.005317
0.007373	1.473472E-5	0.004437	1.417738E-5	73.209751	188.452326	16.959525	189.213913	2.584545	0.089994	0.007373	0.005318
0.008192	1.474210E-5	0.004808	1.425565E-5	79.332194	189.302956	16.839772	190.050486	2.395629	0.088957	0.008192	0.005321
0.009011	1.476391E-5	0.005211	1.433169E-5	85.966414	190.168902	16.801931	190.909706	2.220748	0.088353	0.009011	0.005329
0.009830	1.481120E-5	0.005646	1.440573E-5	93.155592	191.054133	16.846005	191.795385	2.058871	0.088174	0.009830	0.005346
0.010650	1.489898E-5	0.006118	1.447800E-5	100.944782	191.962939	16.972028	192.711753	1.909081	0.088413	0.010650	0.005378
0.011469	1.499781E-5	0.006630	1.454872E-5	109.387391	192.898797	17.179993	193.662330	1.770426	0.089062	0.011469	0.005413
0.012288	1.510770E-5	0.007184	1.461816E-5	118.534939	193.865374	17.469911	194.650921	1.642140	0.090114	0.012288	0.005453
0.013107	1.517236E-5	0.007785	1.468657E-5	128.446510	194.866459	17.841906	195.681554	1.523448	0.091560	0.013107	0.005476
0.014746	1.516397E-5	0.008436	1.475420E-5	139.189407	195.905070	18.296059	196.757572	1.413596	0.093392	0.014746	0.005473
0.016384	1.512196E-5	0.009142	1.482136E-5	150.828888	196.984548	18.832495	197.882730	1.311968	0.095604	0.016384	0.005458
0.018022	1.513229E-5	0.009906	1.488834E-5	163.441016	198.108177	19.451522	199.060824	1.217937	0.098186	0.018022	0.005462
0.019661	1.525740E-5	0.010735	1.495543E-5	177.109173	199.278824	20.153445	200.295310	1.130914	0.101132	0.019661	0.005507
0.021299	1.553118E-5	0.011632	1.502297E-5	191.919240	200.499561	20.938683	201.589936	1.050389	0.104433	0.021299	0.005606
0.022938	1.582164E-5	0.012605	1.509127E-5	207.968576	201.773320	21.807828	202.948403	0.975861	0.108081	0.022938	0.005711
0.024576	1.598285E-5	0.013659	1.516069E-5	225.361960	203.102556	22.761382	204.373993	0.906870	0.112068	0.024576	0.005769
0.026214	1.601257E-5	0.014802	1.523155E-5	244.206073	204.490583	23.800236	205.870954	0.843021	0.116388	0.026214	0.005780
0.029491	1.599067E-5	0.016040	1.530426E-5	264.632026	205.939473	24.925186	207.442357	0.783890	0.121032	0.029491	0.005772
0.032768	1.599014E-5	0.017381	1.537914E-5	286.761234	207.452051	26.137070	209.092085	0.729150	0.125991	0.032768	0.005772
0.036045	1.612906E-5	0.018834	1.545664E-5	310.738750	209.031409	27.437338	210.824423	0.678462	0.131259	0.036045	0.005822
0.039322	1.637227E-5	0.020409	1.553713E-5	336.727865	210.679507	28.827137	212.642560	0.631497	0.136829	0.039322	0.005910
0.042598	1.654346E-5	0.022116	1.562103E-5	364.883911	212.399614	30.308005	214.551092	0.587998	0.142693	0.042598	0.005971
0.045875	1.659428E-5	0.023965	1.570877E-5	395.401089	214.193882	31.881592	216.553584	0.547681	0.148845	0.045875	0.005990
0.049152	1.666039E-5	0.025970	1.580081E-5	428.467217	216.065048	33.549551	218.654241	0.510317	0.155275	0.049152	0.006014
0.052429	1.674810E-5	0.028141	1.589760E-5	464.297152	218.015717	35.313863	220.857243	0.475681	0.161979	0.052429	0.006045
0.058982	1.690631E-5	0.030495	1.599964E-5	503.120296	220.049184	37.177021	223.167592	0.443567	0.168949	0.058982	0.006102
0.065536	1.722925E-5	0.033045	1.610743E-5	545.200675	222.167308	39.141149	225.588879	0.413772	0.176179	0.065536	0.006219
0.072090	1.751864E-5	0.035808	1.622146E-5	590.789670	224.373452	41.208764	228.126299	0.386138	0.183661	0.072090	0.006323
0.078643	1.775480E-5	0.038803	1.634232E-5	640.193213	226.670575	43.382962	230.784815	0.360492	0.191392	0.078643	0.006409
0.085197	1.807167E-5	0.042047	1.647055E-5	693.732927	229.061202	45.666572	233.568984	0.336684	0.199364	0.085197	0.006523
0.091750	1.828532E-5	0.045564	1.660678E-5	751.743328	231.548799	48.062945	236.484446	0.314581	0.207572	0.091750	0.006600
0.098304	1.845137E-5	0.049374	1.675158E-5	814.609164	234.136504	50.575811	239.536668	0.294051	0.216010	0.098304	0.006660
0.104858	1.873910E-5	0.053504	1.690564E-5	882.737356	236.826796	53.208510	242.730462	0.274975	0.224673	0.104858	0.006764
0.117965	1.910575E-5	0.057977	1.706962E-5	956.545197	239.624278	55.965575	246.073038	0.257252	0.233556	0.117965	0.006896
0.131072	1.959073E-5	0.062826	1.724427E-5	1036.544082	242.531570	58.851386	249.569726	0.240771	0.242655	0.131072	0.007071
0.144179	2.016983E-5	0.068079	1.743033E-5	1123.227331	245.552516	61.870448	253.227152	0.225446	0.251964	0.144179	0.007280
0.157286	2.024763E-5	0.073773	1.762866E-5	1217.159879	248.690515	65.027638	257.051680	0.211190	0.261480	0.157286	0.007308
0.170394	2.105987E-5	0.079942	1.784002E-5	1318.935952	251.950238	68.328677	261.051203	0.197926	0.271199	0.170394	0.007602
0.183501	2.277487E-5	0.086628	1.806539E-5	1429.237205	255.335409	71.779409	265.232831	0.185576	0.281118	0.183501	0.008221
0.399815	2.613309E-5	0.093872	1.830569E-5	1548.766743	258.850149	75.385773	269.604181	0.174077	0.291233	0.399815	0.009433
0.599723	3.060999E-5	0.101721	1.856193E-5	1678.291526	262.498740	79.154169	274.173250	0.163364	0.301541	0.599723	0.011049
0.799630	3.565796E-5	0.110229	1.883528E-5	1818.641764	266.285607	83.091390	278.948389	0.153383	0.312039	0.799630	0.012871
0.999538	4.038928E-5	0.119445	1.912677E-5	1970.714550	270.215807	87.204962	283.938880	0.144079	0.322723	0.999538	0.014578
1.199450	4.504433E-5	0.129435	1.943777E-5	2135.499265	274.295300	91.503567	289.155346	0.135404	0.333595	1.199450	0.016259
1.399350	4.948388E-5	0.140260	1.976958E-5	2314.101810	278.527753	95.994980	294.606085	0.127309	0.344651	1.399350	0.017861
1.599260	5.421390E-5	0.151989	2.012353E-5	2507.611910	282.920118	100.688658	300.303178	0.119757	0.355891	1.599260	0.019568
1.799170	5.870885E-5	0.164700	2.050128E-5	2717.340233	287.475803	105.593128	306.255198	0.112704	0.367311	1.799170	0.021191
1.999080	6.340107E-5	0.178471	2.090432E-5	2944.537603	292.203774	110.719908	312.477109	0.106121	0.378913	1.999080	0.022884
2.198980	6.800707E-5	0.193398	2.133461E-5	3190.806583	297.108163	116.079531	318.979182	0.099968	0.390698	2.198980	0.024547
2.398890	7.256158E-5	0.209569	2.179387E-5	3457.650328	302.195012	121.682587	325.773660	0.094218	0.402662	2.398890	0.026191
2.598800	7.736793E-5	0.227093	2.228427E-5	3746.754985	307.473867	127.543288	332.877559	0.088844	0.414810	2.598800	0.027926
2.798710	8.196329E-5	0.246088	2.280813E-5	4060.137907	312.948399	133.673390	340.301742	0.083815	0.427142	2.798710	0.029584
2.998610	8.665948E-5	0.266667	2.336767E-5	4399.650886	318.627983	140.087322	348.063570	0.079112	0.439658	2.998610	0.031280
3.198520	9.133489E-5	0.288963	2.396546E-5	4767.583066	324.518828	146.799649	356.177774	0.074708	0.452361	3.198520	0.032967
3.398430	9.572913E-5	0.313131	2.460460E-5	5166.232666	330.630112	153.826853	364.662819	0.070586	0.465254	3.398430	0.034553
3.598340	0.000101	0.339315	2.528792E-5	5598.239891	336.970619	161.186843	373.537678	0.066724	0.478341	3.598340	0.036317
3.798240	0.000105	0.367694	2.601895E-5	6066.441100	343.547346	168.896825	382.819692	0.063104	0.491626	3.798240	0.037990
3.998150	0.000110	0.398438	2.680101E-5	6573.756485	350.370332	176.976590	392.530359	0.059712	0.505113	3.998150	0.039653
4.198060	0.000114	0.431761	2.763844E-5	7123.526464	357.447997	185.446581	402.690334	0.056530	0.518807	4.198060	0.041306
4.397970	0.000120	0.467867	2.853528E-5	7719.245483	364.789069	194.327973	413.321214	0.053544	0.532713	4.397970	0.043364
4.597880	0.000125	0.506995	2.949637E-5	8364.674947	372.407367	203.647412	424.452018	0.050743	0.546840	4.597880	0.045001
4.797780	0.000129	0.549393	3.052673E-5	9064.285310	380.308825	213.427935	436.103527	0.048112	0.561196	4.797780	0.046523
4.997690	0.000135	0.595328	3.163183E-5	9822.271990	388.506690	223.697517	448.305730	0.045642	0.575788	4.997690	0.048690
5.197600	0.000138	0.645119	3.281830E-5	10643.703569	397.008853	234.483230	461.083956	0.043320	0.590625	5.197600	0.049890
5.397500	0.000144	0.699067	3.409243E-5	11533.615657	405.832662	245.820566	474.476449	0.041139	0.605719	5.397500	0.051939
5.597410	0.000150	0.757528	3.546174E-5	12498.285705	414.984397	257.740086	488.509981	0.039086	0.621084	5.597410	0.054020
5.797320	0.000154	0.820881	3.693432E-5	13543.500019	424.475757	270.275548	503.218184	0.037156	0.636728	5.797320	0.055503
5.997230	0.000159	0.889525	3.851885E-5	14675.889386	434.323745	283.469409	518.644407	0.035340	0.652668	5.997230	0.057555
6.197140	0.000164	0.963910	4.022520E-5	15903.245995	444.537274	297.361075	534.824268	0.033630	0.668923	6.197140	0.059201
6.397040	0.000169	1.044517	4.206411E-5	17233.172206	455.129782	311.994257	551.800267	0.032020	0.685506	6.397040	0.060979
6.596950	0.000175	1.131869	4.404746E-5	18674.266554	466.114643	327.416880	569.618007	0.030503	0.702439	6.596950	0.063131
6.796860	0.000178	1.226517	4.618790E-5	20235.871588	477.505485	343.680617	588.326316	0.029073	0.719742	6.796860	0.064387
6.996770	0.000185	1.329092	4.850023E-5	21928.130834	489.316850	360.841943	607.978525	0.027726	0.737440	6.996770	0.066696
7.196670	0.000190	1.440232	5.099965E-5	23762.156129	501.556923	378.955095	628.622551	0.026455	0.755557	7.196670	0.068508
