MicroRheology Analysis v9.2.8
10/03/18 5:37:04 PM

Correlation Mode:	Cross
Geometry:	Transmission
Multi-Tau Duration (s):	120
Echo Duration (s):	60
Wavelength (nm):	685.0
Temperature (°C):	25.00
Cuvette Thickness (mm):	10.00
Absorption Length (mm):	Inf
Solvent:	Water
Solvent Refractive Index:	1.329
Particle Radius (nm):	465.0
Mean Count Rate (kHz):	169.4
l* (microns):	949.72



Lag Time (s)	Mean Square Displacement (micron^2)	Fit Lag Time (s)	Mean Square Displacement Fit (micron^2)	Frequency(rad/s)	G1 (Pa)	G2 (Pa)	G* (Pa)	Complex Viscosity (Pa s)	Loss Tangent (-)	Time (s)	Creep Compliance (1/Pa)

2.812500E-6	1.013505E-6	2.812543E-6	1.066270E-6	0.113687	-1.077129	2.481567	2.705251	23.795579	-2.303872	2.812500E-6	0.000360
3.012500E-6	1.097302E-6	3.069578E-6	1.137091E-6	0.124079	-1.190631	2.785403	3.029203	24.413532	-2.339434	3.012500E-6	0.000389
3.212500E-6	1.181221E-6	3.350123E-6	1.210853E-6	0.135419	-1.309266	3.130264	3.393042	25.055916	-2.390854	3.212500E-6	0.000419
3.612500E-6	1.265289E-6	3.656329E-6	1.287595E-6	0.147798	-1.431805	3.520951	3.800942	25.717130	-2.459100	3.612500E-6	0.000449
4.012500E-6	1.416270E-6	3.990504E-6	1.367341E-6	0.161305	-1.556705	3.962952	4.257736	26.395542	-2.545731	4.012500E-6	0.000503
4.412500E-6	1.500521E-6	4.355246E-6	1.450134E-6	0.176048	-1.681849	4.462017	4.768461	27.086192	-2.653043	4.412500E-6	0.000533
4.812500E-6	1.524149E-6	4.753289E-6	1.535991E-6	0.192137	-1.804576	5.024388	5.338630	27.785468	-2.784248	4.812500E-6	0.000541
5.212500E-6	1.616112E-6	5.187822E-6	1.624968E-6	0.209701	-1.921479	5.656405	5.973859	28.487549	-2.943777	5.212500E-6	0.000574
5.612500E-6	1.731912E-6	5.661935E-6	1.717041E-6	0.228867	-2.028487	6.364929	6.680351	29.188833	-3.137771	5.612500E-6	0.000615
6.012500E-6	1.909545E-6	6.179404E-6	1.812262E-6	0.249785	-2.120639	7.156889	7.464461	29.883550	-3.374874	6.012500E-6	0.000678
6.412500E-6	1.948928E-6	6.744264E-6	1.910658E-6	0.272613	-2.192115	8.039523	8.333025	30.567190	-3.667473	6.412500E-6	0.000692
7.212500E-6	1.998579E-6	7.360630E-6	2.012208E-6	0.297530	-2.236057	9.019910	9.292940	31.233600	-4.033846	7.212500E-6	0.000709
8.012500E-6	2.098266E-6	8.033326E-6	2.116940E-6	0.324724	-2.244608	10.105141	10.351432	31.877652	-4.501962	8.012500E-6	0.000745
8.812500E-6	2.275286E-6	8.767680E-6	2.224884E-6	0.354403	-2.208808	11.302070	11.515886	32.493725	-5.116820	8.812500E-6	0.000807
9.612500E-6	2.374555E-6	9.568965E-6	2.335989E-6	0.386798	-2.118571	12.617018	12.793650	33.075833	-5.955437	9.612500E-6	0.000843
1.041250E-5	2.494677E-6	1.044350E-5	2.450278E-6	0.422152	-1.962729	14.055710	14.192086	33.618452	-7.161308	1.041250E-5	0.000885
1.121250E-5	2.575185E-6	1.139818E-5	2.567762E-6	0.460734	-1.729017	15.623538	15.718920	34.117137	-9.036079	1.121250E-5	0.000914
1.201250E-5	2.673261E-6	1.243986E-5	2.688370E-6	0.502850	-1.404069	17.324166	17.380971	34.564946	-12.338543	1.201250E-5	0.000949
1.281250E-5	2.767397E-6	1.357690E-5	2.812124E-6	0.548809	-0.973684	19.160631	19.185354	34.958152	-19.678497	1.281250E-5	0.000982
1.441250E-5	2.881285E-6	1.481773E-5	2.938966E-6	0.598969	-0.422766	21.134256	21.138485	35.291471	-49.990408	1.441250E-5	0.001023
1.601250E-5	2.948052E-6	1.617201E-5	3.068873E-6	0.653706	0.264559	23.245806	23.247312	35.562343	87.866217	1.601250E-5	0.001046
1.761250E-5	3.056882E-6	1.765027E-5	3.201819E-6	0.713465	1.104559	25.492478	25.516397	35.764067	23.079332	1.761250E-5	0.001085
1.921250E-5	3.152885E-6	1.926334E-5	3.337708E-6	0.778672	2.113670	27.871104	27.951136	35.895917	13.186122	1.921250E-5	0.001119
2.081250E-5	3.246044E-6	2.102425E-5	3.476536E-6	0.849843	3.308363	30.375334	30.554970	35.953646	9.181379	2.081250E-5	0.001152
2.241250E-5	3.381442E-6	2.294557E-5	3.618166E-6	0.927505	4.705016	32.998174	33.331917	35.937201	7.013404	2.241250E-5	0.001200
2.401250E-5	3.524229E-6	2.504283E-5	3.762585E-6	1.012278	6.319475	35.729364	36.283925	35.843817	5.653850	2.401250E-5	0.001251
2.561250E-5	3.738054E-6	2.733166E-5	3.909677E-6	1.104810	8.166186	38.555936	39.411252	35.672435	4.721413	2.561250E-5	0.001327
2.881250E-5	4.002413E-6	2.983012E-5	4.059382E-6	1.205782	10.258786	41.464185	42.714416	35.424666	4.041822	2.881250E-5	0.001420
3.201250E-5	4.192532E-6	3.255645E-5	4.211547E-6	1.315993	12.609308	44.437356	46.191702	35.100256	3.524171	3.201250E-5	0.001488
3.521250E-5	4.328991E-6	3.553186E-5	4.366082E-6	1.436280	15.227549	47.456690	49.839900	34.700685	3.116502	3.521250E-5	0.001536
3.841250E-5	4.420190E-6	3.877984E-5	4.522903E-6	1.567548	18.121752	50.502845	53.655710	34.229079	2.786863	3.841250E-5	0.001569
4.161250E-5	4.548436E-6	4.232435E-5	4.681838E-6	1.710835	21.296842	53.553042	57.632316	33.686662	2.514600	4.161250E-5	0.001614
4.481250E-5	4.761003E-6	4.619218E-5	4.842738E-6	1.867187	24.755823	56.585477	61.763800	33.078534	2.285744	4.481250E-5	0.001690
4.801250E-5	4.976966E-6	5.041418E-5	5.005512E-6	2.037841	28.499082	59.576655	66.042225	32.407943	2.090476	4.801250E-5	0.001766
5.121250E-5	5.149027E-6	5.502227E-5	5.169986E-6	2.224119	32.523048	62.501693	70.457152	31.678677	1.921766	5.121250E-5	0.001827
5.761250E-5	5.315870E-6	6.005142E-5	5.335989E-6	2.427408	36.821267	65.336446	74.997713	30.896212	1.774421	5.761250E-5	0.001887
6.401250E-5	5.508676E-6	6.553956E-5	5.503336E-6	2.649256	41.385032	68.057569	79.652707	30.066068	1.644497	6.401250E-5	0.001955
7.041250E-5	5.709688E-6	7.153011E-5	5.671894E-6	2.891396	46.201925	70.641360	84.408646	29.193039	1.528970	7.041250E-5	0.002026
7.681250E-5	5.924930E-6	7.806804E-5	5.841454E-6	3.155652	51.257591	73.066505	89.252757	28.283463	1.425477	7.681250E-5	0.002103
8.321250E-5	6.113631E-6	8.520329E-5	6.011826E-6	3.444108	56.532966	75.310922	94.168526	27.341918	1.332159	8.321250E-5	0.002170
8.961250E-5	6.233106E-6	9.299024E-5	6.182813E-6	3.758851	62.008969	77.357397	99.142721	26.375805	1.247519	8.961250E-5	0.002212
9.601250E-5	6.378824E-6	0.000101	6.354229E-6	4.102415	67.663534	79.188620	104.159452	25.389790	1.170329	9.601250E-5	0.002264
0.000102	6.557922E-6	0.000111	6.525884E-6	4.477419	73.471096	80.789523	109.201415	24.389369	1.099610	0.000102	0.002327
0.000115	6.729937E-6	0.000121	6.697557E-6	4.886618	79.406698	82.149385	114.253863	23.380969	1.034540	0.000115	0.002388
0.000128	6.930268E-6	0.000132	6.869039E-6	5.333238	85.443705	83.258840	119.300717	22.369283	0.974429	0.000128	0.002459
0.000141	7.145711E-6	0.000144	7.040131E-6	5.820681	91.554323	84.111677	124.326056	21.359366	0.918708	0.000141	0.002536
0.000154	7.298823E-6	0.000157	7.210623E-6	6.352643	97.711983	84.705247	129.315933	20.356241	0.866887	0.000154	0.002590
0.000166	7.442106E-6	0.000172	7.380285E-6	6.933336	103.887539	85.038097	134.253859	19.363531	0.818559	0.000166	0.002641
0.000179	7.561813E-6	0.000187	7.548930E-6	7.566987	110.055397	85.113910	139.127883	18.386167	0.773373	0.000179	0.002684
0.000192	7.685164E-6	0.000204	7.716361E-6	8.258691	116.188087	84.936693	143.923290	17.426888	0.731028	0.000192	0.002727
0.000205	7.839091E-6	0.000223	7.882371E-6	9.013516	122.260406	84.514759	148.628232	16.489484	0.691268	0.000205	0.002782
0.000230	8.025632E-6	0.000243	8.046747E-6	9.837243	128.250617	83.858464	153.233360	15.576861	0.653864	0.000230	0.002848
0.000256	8.210278E-6	0.000266	8.209351E-6	10.736471	134.135321	82.978909	157.726928	14.690761	0.618621	0.000256	0.002914
0.000282	8.370873E-6	0.000290	8.369943E-6	11.717739	139.895253	81.890904	162.101209	13.833830	0.585373	0.000282	0.002971
0.000307	8.500329E-6	0.000316	8.528402E-6	12.788724	145.512471	80.609613	166.348396	13.007427	0.553970	0.000307	0.003017
0.000333	8.621904E-6	0.000345	8.684551E-6	13.957519	150.972298	79.152109	170.463166	12.212999	0.524282	0.000333	0.003060
0.000358	8.737889E-6	0.000377	8.838213E-6	15.233275	156.261365	77.535884	174.440326	11.451269	0.496194	0.000358	0.003101
0.000384	8.858494E-6	0.000411	8.989314E-6	16.625674	161.368667	75.779655	178.276198	10.722946	0.469606	0.000384	0.003144
0.000410	8.981148E-6	0.000449	9.137645E-6	18.145321	166.284968	73.902558	181.967795	10.028359	0.444433	0.000410	0.003187
0.000461	9.111014E-6	0.000490	9.283141E-6	19.803531	171.005835	71.924175	185.515720	9.367810	0.420595	0.000461	0.003233
0.000512	9.256663E-6	0.000535	9.425711E-6	21.613653	175.526091	69.863092	188.918660	8.740709	0.398021	0.000512	0.003285
0.000563	9.404576E-6	0.000584	9.565247E-6	23.588907	179.845057	67.738874	192.179082	8.147011	0.376651	0.000563	0.003338
0.000614	9.529656E-6	0.000637	9.701729E-6	25.745009	183.962488	65.569626	195.298676	7.585885	0.356429	0.000614	0.003382
0.000666	9.636223E-6	0.000695	9.835037E-6	28.098169	187.880380	63.373621	198.280742	7.056714	0.337308	0.000666	0.003420
0.000717	9.721901E-6	0.000759	9.965207E-6	30.666380	191.602276	61.168175	201.129257	6.558624	0.319246	0.000717	0.003450
0.000768	9.811978E-6	0.000828	1.009218E-5	33.469096	195.134355	58.969694	203.850046	6.090695	0.302200	0.000768	0.003482
0.000819	9.924201E-6	0.000904	1.021599E-5	36.528494	198.482153	56.793496	206.447733	5.651690	0.286139	0.000819	0.003522
0.000922	1.005414E-5	0.000986	1.033664E-5	39.866926	201.654197	54.654474	208.929478	5.240672	0.271031	0.000922	0.003568
0.001024	1.018682E-5	0.001076	1.045421E-5	43.510668	204.659575	52.565718	211.302382	4.856335	0.256845	0.001024	0.003615
0.001126	1.031931E-5	0.001175	1.056871E-5	47.487911	207.507116	50.539747	213.573100	4.497420	0.243557	0.001126	0.003662
0.001229	1.042791E-5	0.001282	1.068028E-5	51.827942	210.207959	48.588114	215.750297	4.162818	0.231143	0.001229	0.003701
0.001331	1.053026E-5	0.001399	1.078902E-5	56.565176	212.772547	46.720874	217.841679	3.851162	0.219581	0.001331	0.003737
0.001434	1.061875E-5	0.001527	1.089503E-5	61.735072	215.212177	44.947520	219.855773	3.561278	0.208852	0.001434	0.003768
0.001536	1.071717E-5	0.001667	1.099845E-5	67.377201	217.538902	43.276222	221.801725	3.291940	0.198936	0.001536	0.003803
0.001638	1.083166E-5	0.001819	1.109949E-5	73.535981	219.763903	41.714275	223.687849	3.041883	0.189814	0.001638	0.003844
0.001843	1.097077E-5	0.001985	1.119829E-5	80.257371	221.898910	40.268392	225.523103	2.809999	0.181472	0.001843	0.003893
0.002048	1.111918E-5	0.002167	1.129510E-5	87.592804	223.955535	38.944256	227.316380	2.595149	0.173893	0.002048	0.003946
0.002253	1.127145E-5	0.002365	1.139012E-5	95.598104	225.945600	37.746768	229.076914	2.396250	0.167061	0.002253	0.004000
0.002458	1.140432E-5	0.002581	1.148360E-5	104.335583	227.880485	36.680105	230.813660	2.212224	0.160962	0.002458	0.004047
0.002662	1.153003E-5	0.002817	1.157583E-5	113.872433	229.770948	35.747992	232.535175	2.042067	0.155581	0.002662	0.004092
0.002867	1.163179E-5	0.003075	1.166708E-5	124.280074	231.627912	34.953632	234.250392	1.884859	0.150904	0.002867	0.004128
0.003072	1.173497E-5	0.003356	1.175766E-5	135.638680	233.462091	34.299621	235.968243	1.739683	0.146917	0.003072	0.004165
0.003277	1.184945E-5	0.003662	1.184791E-5	148.036706	235.283055	33.788212	237.696780	1.605661	0.143607	0.003277	0.004205
0.003686	1.198567E-5	0.003997	1.193819E-5	161.565297	237.101295	33.421399	239.445221	1.482034	0.140958	0.003686	0.004254
0.004096	1.213654E-5	0.004362	1.202884E-5	176.333405	238.925579	33.200730	241.221311	1.367984	0.138958	0.004096	0.004307
0.004506	1.228346E-5	0.004761	1.212028E-5	192.449338	240.765132	33.127731	243.033527	1.262844	0.137594	0.004506	0.004359
0.004915	1.239379E-5	0.005196	1.221291E-5	210.038219	242.628804	33.203677	244.890222	1.165932	0.136850	0.004915	0.004398
0.005325	1.248353E-5	0.005671	1.230715E-5	229.237162	244.524370	33.429699	246.798931	1.076610	0.136713	0.005325	0.004430
0.005734	1.253924E-5	0.006189	1.240350E-5	250.188053	246.460222	33.806992	248.768072	0.994324	0.137170	0.005734	0.004450
0.006144	1.257792E-5	0.006755	1.250238E-5	273.056839	248.443547	34.336619	250.805103	0.918509	0.138207	0.006144	0.004464
0.006554	1.260976E-5	0.007373	1.260434E-5	298.014088	250.481466	35.019657	252.917657	0.848677	0.139809	0.006554	0.004475
0.007373	1.265489E-5	0.008046	1.270989E-5	325.248529	252.581542	35.857442	255.114075	0.784367	0.141964	0.007373	0.004491
0.008192	1.272329E-5	0.008782	1.281958E-5	354.977394	254.750159	36.851322	257.401755	0.725122	0.144657	0.008192	0.004515
0.009011	1.283055E-5	0.009584	1.293401E-5	387.424406	256.993360	38.002593	259.787960	0.670551	0.147874	0.009011	0.004553
0.009830	1.295904E-5	0.010460	1.305377E-5	422.831106	259.317992	39.313022	262.281022	0.620297	0.151602	0.009830	0.004599
0.010650	1.312718E-5	0.011416	1.317950E-5	461.479038	261.729845	40.784520	264.888446	0.573999	0.155827	0.010650	0.004659
0.011469	1.327804E-5	0.012460	1.331190E-5	503.660469	264.234307	42.418915	267.617513	0.531345	0.160535	0.011469	0.004712
0.012288	1.342938E-5	0.013599	1.345167E-5	549.688424	266.838113	44.218839	270.477142	0.492055	0.165714	0.012288	0.004766
0.013107	1.355021E-5	0.014842	1.359956E-5	599.935438	269.545792	46.186731	273.474218	0.455839	0.171350	0.013107	0.004809
0.014746	1.364799E-5	0.016198	1.375635E-5	654.763454	272.363883	48.325664	276.617885	0.422470	0.177431	0.014746	0.004843
0.016384	1.374468E-5	0.017679	1.392291E-5	714.613420	275.297406	50.639026	279.916010	0.391703	0.183943	0.016384	0.004878
0.018022	1.389802E-5	0.019295	1.410013E-5	779.933866	278.351631	53.130207	283.376868	0.363334	0.190874	0.018022	0.004932
0.019661	1.410065E-5	0.021058	1.428893E-5	851.219101	281.531839	55.803037	287.008981	0.337174	0.198212	0.019661	0.005004
0.021299	1.439124E-5	0.022983	1.449038E-5	929.007897	284.844537	58.662421	290.822438	0.313046	0.205945	0.021299	0.005107
0.022938	1.463100E-5	0.025083	1.470549E-5	1013.921530	288.294490	61.713190	294.825763	0.290778	0.214063	0.022938	0.005192
0.024576	1.480347E-5	0.027376	1.493545E-5	1106.589030	291.887727	64.960622	299.028974	0.270226	0.222553	0.024576	0.005253
0.026214	1.493145E-5	0.029878	1.518153E-5	1207.728661	295.629985	68.410703	303.442107	0.251250	0.231407	0.026214	0.005299
0.029491	1.509109E-5	0.032609	1.544499E-5	1318.113723	299.527560	72.070068	308.076052	0.233725	0.240612	0.029491	0.005356
0.032768	1.531950E-5	0.035590	1.572731E-5	1438.601760	303.585275	75.945081	312.940369	0.217531	0.250161	0.032768	0.005437
0.036045	1.564663E-5	0.038842	1.603002E-5	1570.073508	307.811452	80.044090	318.048654	0.202569	0.260043	0.036045	0.005553
0.039322	1.599615E-5	0.042393	1.635479E-5	1713.602515	312.210351	84.374743	323.410576	0.188731	0.270250	0.039322	0.005677
0.042598	1.635356E-5	0.046267	1.670336E-5	1870.213709	316.790227	88.946060	329.040194	0.175937	0.280773	0.042598	0.005804
0.045875	1.655537E-5	0.050496	1.707779E-5	2041.154921	321.557165	93.767674	334.949828	0.164098	0.291605	0.045875	0.005875
0.049152	1.677691E-5	0.055111	1.748006E-5	2227.703518	326.518685	98.849829	341.153544	0.153141	0.302739	0.049152	0.005954
0.052429	1.707620E-5	0.060148	1.791265E-5	2431.292414	331.683935	104.204928	347.667801	0.142997	0.314169	0.052429	0.006060
0.058982	1.749370E-5	0.065646	1.837801E-5	2653.548603	337.057906	109.843814	354.504860	0.133597	0.325890	0.058982	0.006208
0.065536	1.810083E-5	0.071646	1.887885E-5	2896.053225	342.651309	115.780124	361.683503	0.124888	0.337895	0.065536	0.006424
0.072090	1.879725E-5	0.078194	1.941814E-5	3160.759287	348.471701	122.028164	369.219988	0.116814	0.350181	0.072090	0.006671
0.078643	1.939329E-5	0.085341	1.999925E-5	3449.654156	354.527518	128.602384	377.131719	0.109325	0.362743	0.078643	0.006882
0.085197	2.008194E-5	0.093140	2.062574E-5	3764.913384	360.830242	135.520392	385.440320	0.102377	0.375579	0.085197	0.007127
0.091750	2.052121E-5	0.101654	2.130170E-5	4109.052011	367.387150	142.798802	394.163438	0.095926	0.388688	0.091750	0.007283
0.098304	2.090669E-5	0.110944	2.203120E-5	4484.578048	374.210837	150.457367	403.325142	0.089936	0.402066	0.098304	0.007419
0.104858	2.144281E-5	0.121085	2.281930E-5	4894.476631	381.311019	158.516647	412.947479	0.084370	0.415715	0.104858	0.007610
0.117965	2.221504E-5	0.132153	2.367132E-5	5341.840361	388.698691	166.998209	423.054458	0.079196	0.429634	0.117965	0.007884
0.131072	2.326622E-5	0.144231	2.459282E-5	5830.071359	396.385896	175.925949	433.672362	0.074385	0.443825	0.131072	0.008257
0.144179	2.458408E-5	0.157415	2.559062E-5	6362.920418	404.385785	185.326347	444.829988	0.069910	0.458291	0.144179	0.008724
0.157286	2.447202E-5	0.171801	2.667149E-5	6944.529696	412.709942	195.226520	456.555463	0.065743	0.473036	0.157286	0.008685
0.170394	2.639406E-5	0.187503	2.784361E-5	7579.281620	421.371694	205.655917	468.880007	0.061863	0.488063	0.170394	0.009367
0.183501	3.203895E-5	0.204641	2.911571E-5	8272.026141	430.385392	216.647140	481.837699	0.058249	0.503379	0.183501	0.011370
0.399815	4.229011E-5	0.223343	3.049748E-5	9028.104047	439.765119	228.234946	495.463975	0.054880	0.518993	0.399815	0.015008
0.599722	5.673234E-5	0.243759	3.200016E-5	9853.290244	449.524758	240.455962	509.795624	0.051739	0.534911	0.599722	0.020133
0.799630	7.146896E-5	0.266039	3.363541E-5	10753.817092	459.680574	253.351105	524.874283	0.048808	0.551146	0.799630	0.025363
0.999537	8.858697E-5	0.290351	3.541657E-5	11736.636290	470.249055	266.965080	540.744420	0.046073	0.567710	0.999537	0.031438
1.199440	0.000109	0.316892	3.735940E-5	12809.339189	481.246190	281.345339	557.452326	0.043519	0.584618	1.199440	0.038518
1.399350	0.000124	0.345854	3.947992E-5	13980.125721	492.688682	296.543123	575.047790	0.041133	0.601887	1.399350	0.043877
1.599260	0.000142	0.377464	4.179735E-5	15257.960891	504.591360	312.611874	593.581186	0.038903	0.619535	1.599260	0.050250
1.799170	0.000160	0.411962	4.433237E-5	16652.394881	516.975385	329.614457	613.114377	0.036818	0.637582	1.799170	0.056890
1.999070	0.000179	0.449616	4.710894E-5	18174.457972	529.856632	347.615905	633.707241	0.034868	0.656057	1.999070	0.063479
2.198980	0.000198	0.490715	5.015343E-5	19835.687407	543.251951	366.685720	655.424366	0.033043	0.674983	2.198980	0.070308
2.398890	0.000218	0.535565	5.349473E-5	21648.684127	557.177139	386.898388	678.333787	0.031334	0.694390	2.398890	0.077293
2.598800	0.000238	0.584510	5.716615E-5	23627.061388	571.655214	408.342177	702.519051	0.029734	0.714315	2.598800	0.084327
2.798700	0.000259	0.637939	6.120610E-5	25786.597069	586.701709	431.108397	728.061361	0.028234	0.734800	2.798700	0.091751
2.998610	0.000278	0.696243	6.565513E-5	28143.757660	602.328091	455.290008	755.041801	0.026828	0.755884	2.998610	0.098822
3.198520	0.000299	0.759882	7.056153E-5	30715.875578	618.554899	480.997478	783.561572	0.025510	0.777615	3.198520	0.106146
3.398430	0.000321	0.829337	7.597799E-5	33523.164576	635.399108	508.352422	813.728586	0.024274	0.800052	3.398430	0.113959
3.598330	0.000344	0.905133	8.196385E-5	36587.609073	652.865963	537.475055	845.643779	0.023113	0.823255	3.598330	0.122080
3.798240	0.000364	0.987870	8.858827E-5	39931.583975	670.972261	568.508273	879.434722	0.022024	0.847290	3.798240	0.129126
3.998150	0.000390	1.078162	9.592580E-5	43581.399703	689.720370	601.598804	915.224186	0.021000	0.872236	3.998150	0.138446
4.198060	0.000409	1.176687	0.000104	47564.122494	709.126634	636.924258	953.170024	0.020040	0.898181	4.198060	0.145284
4.397960	0.000433	1.284238	0.000113	51912.069521	729.177965	674.653038	993.406879	0.019136	0.925224	4.397960	0.153619
4.597870	0.000454	1.401611	0.000123	56656.357492	749.883012	714.993957	1036.118183	0.018288	0.953474	4.597870	0.161153
4.797780	0.000475	1.529740	0.000134	61835.247285	771.220993	758.154611	1081.471329	0.017490	0.983058	4.797780	0.168417
4.997680	0.000503	1.669536	0.000147	67486.703437	793.179158	804.373987	1129.668397	0.016739	1.014114	4.997680	0.178388
5.197590	0.000526	1.822127	0.000161	73654.533165	815.733980	853.917423	1180.930519	0.016033	1.046809	5.197590	0.186672
5.397500	0.000548	1.988666	0.000176	80386.744437	838.840691	907.059817	1235.480156	0.015369	1.081325	5.397500	0.194538
5.597410	0.000572	2.170450	0.000193	87733.300463	862.462684	964.129269	1293.594654	0.014745	1.117879	5.597410	0.203010
5.797310	0.000598	2.368817	0.000213	95753.301865	886.517168	1025.446769	1355.527117	0.014156	1.156714	5.797310	0.212333
5.997220	0.000622	2.585332	0.000234	104504.510332	910.930190	1091.391786	1421.594120	0.013603	1.198107	5.997220	0.220838
