MicroRheology Analysis v9.2.8
10/03/18 5:31:32 PM

Correlation Mode:	Cross
Geometry:	Transmission
Multi-Tau Duration (s):	120
Echo Duration (s):	60
Wavelength (nm):	685.0
Temperature (°C):	25.00
Cuvette Thickness (mm):	10.00
Absorption Length (mm):	154.852
Solvent:	Water
Solvent Refractive Index:	1.329
Particle Radius (nm):	465.0
Mean Count Rate (kHz):	120.7
l* (microns):	872.47



Lag Time (s)	Mean Square Displacement (micron^2)	Fit Lag Time (s)	Mean Square Displacement Fit (micron^2)	Frequency(rad/s)	G1 (Pa)	G2 (Pa)	G* (Pa)	Complex Viscosity (Pa s)	Loss Tangent (-)	Time (s)	Creep Compliance (1/Pa)

4.012500E-6	2.134020E-6	4.012566E-6	2.130792E-6	0.079401	1.446365	5.158573	5.357504	67.474401	3.566578	4.012500E-6	0.000757
4.412500E-6	2.299310E-6	4.348550E-6	2.256563E-6	0.086051	1.415597	5.532246	5.710487	66.361577	3.908064	4.412500E-6	0.000816
4.812500E-6	2.445694E-6	4.712790E-6	2.386848E-6	0.093257	1.393927	5.934544	6.096051	65.368136	4.257427	4.812500E-6	0.000868
5.212500E-6	2.573163E-6	5.107439E-6	2.521623E-6	0.101068	1.382833	6.368305	6.516712	64.478702	4.605260	5.212500E-6	0.000913
5.612500E-6	2.690874E-6	5.535221E-6	2.660998E-6	0.109533	1.384051	6.836382	6.975079	63.680266	4.939402	5.612500E-6	0.000955
6.012500E-6	2.938296E-6	5.998806E-6	2.804988E-6	0.118706	1.399594	7.341710	7.473926	62.961466	5.245601	6.012500E-6	0.001043
6.412500E-6	2.980875E-6	6.501206E-6	2.953643E-6	0.128647	1.431786	7.887376	8.016278	62.312073	5.508767	6.412500E-6	0.001058
7.212500E-6	3.128397E-6	7.045592E-6	3.106987E-6	0.139422	1.483254	8.476290	8.605087	61.719788	5.714660	7.212500E-6	0.001110
8.012500E-6	3.220474E-6	7.635654E-6	3.265112E-6	0.151098	1.556997	9.111394	9.243470	61.175305	5.851903	8.012500E-6	0.001143
8.812500E-6	3.509514E-6	8.275214E-6	3.428055E-6	0.163751	1.656428	9.795803	9.934863	60.670650	5.913813	8.812500E-6	0.001245
9.612500E-6	3.671305E-6	8.968205E-6	3.595803E-6	0.177466	1.785297	10.532124	10.682365	60.193990	5.899367	9.612500E-6	0.001303
1.041250E-5	4.045548E-6	9.719394E-6	3.768457E-6	0.192327	1.947850	11.323244	11.489560	59.739661	5.813200	1.041250E-5	0.001436
1.121250E-5	4.212781E-6	1.053322E-5	3.945953E-6	0.208436	2.148696	12.171471	12.359676	59.297278	5.664584	1.121250E-5	0.001495
1.201250E-5	4.342302E-6	1.141539E-5	4.128414E-6	0.225892	2.392906	13.079053	13.296150	58.860534	5.465762	1.201250E-5	0.001541
1.281250E-5	4.404451E-6	1.237141E-5	4.315813E-6	0.244811	2.685954	14.047791	14.302265	58.421682	5.230093	1.281250E-5	0.001563
1.441250E-5	4.592718E-6	1.340753E-5	4.508182E-6	0.265312	3.033805	15.079398	15.381554	57.975352	4.970457	1.441250E-5	0.001630
1.601250E-5	4.762149E-6	1.453045E-5	4.705521E-6	0.287534	3.442723	16.174670	16.536998	57.513281	4.698220	1.601250E-5	0.001690
1.761250E-5	4.994445E-6	1.574744E-5	4.907835E-6	0.311615	3.919290	17.333908	17.771472	57.030159	4.422717	1.761250E-5	0.001772
1.921250E-5	5.244967E-6	1.706607E-5	5.115068E-6	0.337710	4.470574	18.557348	19.088248	56.522619	4.150999	1.921250E-5	0.001861
2.081250E-5	5.395407E-6	1.849565E-5	5.327323E-6	0.365996	5.103646	19.843604	20.489408	55.982597	3.888123	2.081250E-5	0.001915
2.241250E-5	5.573832E-6	2.004448E-5	5.544434E-6	0.396646	5.825951	21.191417	21.977667	55.408814	3.637417	2.241250E-5	0.001978
2.401250E-5	5.826659E-6	2.172328E-5	5.766469E-6	0.429867	6.644744	22.597719	23.554395	54.794576	3.400841	2.401250E-5	0.002068
2.561250E-5	6.120783E-6	2.354230E-5	5.993299E-6	0.465862	7.567651	24.059817	25.221898	54.140242	3.179298	2.561250E-5	0.002172
2.881250E-5	6.495331E-6	2.551433E-5	6.224994E-6	0.504882	8.601752	25.572688	26.980595	53.439379	2.972963	2.881250E-5	0.002305
3.201250E-5	6.904964E-6	2.765104E-5	6.461355E-6	0.547163	9.754195	27.131534	28.831657	52.692985	2.781525	3.201250E-5	0.002450
3.521250E-5	7.202349E-6	2.996674E-5	6.702360E-6	0.592993	11.031244	28.729241	30.774302	51.896570	2.604352	3.521250E-5	0.002556
3.841250E-5	7.449605E-6	3.247640E-5	6.947912E-6	0.642646	12.439264	30.359348	32.808921	51.052870	2.440606	3.841250E-5	0.002644
4.161250E-5	7.738510E-6	3.519594E-5	7.197876E-6	0.696467	13.983797	32.013457	34.934338	50.159325	2.289325	4.161250E-5	0.002746
4.481250E-5	8.027861E-6	3.814401E-5	7.452222E-6	0.754805	15.668961	33.681727	37.148016	49.215374	2.149583	4.481250E-5	0.002849
4.801250E-5	8.340098E-6	4.133864E-5	7.710722E-6	0.818014	17.498702	35.354862	39.448331	48.224528	2.020428	4.801250E-5	0.002960
5.121250E-5	8.633169E-6	4.480050E-5	7.973230E-6	0.886527	19.475397	37.021568	41.831658	47.186005	1.900940	5.121250E-5	0.003064
5.761250E-5	8.959533E-6	4.855257E-5	8.239624E-6	0.960771	21.600425	38.670638	44.294431	46.103000	1.790272	5.761250E-5	0.003180
6.401250E-5	9.328149E-6	5.261859E-5	8.509685E-6	1.041234	23.873870	40.290078	46.832170	44.977546	1.687622	6.401250E-5	0.003310
7.041250E-5	9.666317E-6	5.702535E-5	8.783248E-6	1.128437	26.294423	41.867586	49.439776	43.812602	1.592261	7.041250E-5	0.003430
7.681250E-5	1.000204E-5	6.180103E-5	9.060078E-6	1.222946	28.859083	43.390406	52.111170	42.611179	1.503527	7.681250E-5	0.003550
8.321250E-5	1.031319E-5	6.697717E-5	9.339983E-6	1.325361	31.563573	44.846097	54.840054	41.377462	1.420818	8.321250E-5	0.003660
8.961250E-5	1.056188E-5	7.258596E-5	9.622650E-6	1.436347	34.402587	46.222585	57.620008	40.115664	1.343579	8.961250E-5	0.003748
9.601250E-5	1.086480E-5	7.866484E-5	9.907880E-6	1.556648	37.368328	47.507153	60.442713	38.828764	1.271321	9.601250E-5	0.003856
0.000102	1.122506E-5	8.525383E-5	1.019542E-5	1.687006	40.452634	48.688917	63.301076	37.522742	1.203603	0.000102	0.003984
0.000115	1.156747E-5	9.239431E-5	1.048493E-5	1.828306	43.645137	49.756487	66.186146	36.200808	1.140024	0.000115	0.004105
0.000128	1.199224E-5	0.000100	1.077605E-5	1.981435	46.934021	50.699833	69.088895	34.868117	1.080236	0.000128	0.004256
0.000141	1.236476E-5	0.000109	1.106864E-5	2.147361	50.307224	51.510437	72.000985	33.529984	1.023917	0.000141	0.004388
0.000154	1.264446E-5	0.000118	1.136218E-5	2.327191	53.751603	52.180518	74.913558	32.190555	0.970771	0.000154	0.004487
0.000166	1.294248E-5	0.000127	1.165644E-5	2.522104	57.252778	52.703499	77.817346	30.854144	0.920540	0.000166	0.004593
0.000179	1.319852E-5	0.000138	1.195102E-5	2.733357	60.794883	53.074025	80.702354	29.524996	0.873002	0.000179	0.004684
0.000192	1.342977E-5	0.000150	1.224563E-5	2.962250	64.363138	53.289183	83.560460	28.208440	0.827946	0.000192	0.004766
0.000205	1.372761E-5	0.000162	1.253975E-5	3.210330	67.942008	53.346685	86.382783	26.907755	0.785180	0.000205	0.004872
0.000230	1.402890E-5	0.000176	1.283321E-5	3.479200	71.515651	53.246051	89.160699	25.626781	0.744537	0.000230	0.004979
0.000256	1.435708E-5	0.000191	1.312544E-5	3.770592	75.068259	52.988346	91.885844	24.369074	0.705869	0.000256	0.005095
0.000282	1.471145E-5	0.000207	1.341619E-5	4.086370	78.584527	52.576251	94.550463	23.138006	0.669041	0.000282	0.005221
0.000307	1.496485E-5	0.000224	1.370492E-5	4.428567	82.050449	52.013963	97.147972	21.936659	0.633927	0.000307	0.005311
0.000333	1.516908E-5	0.000243	1.399138E-5	4.799479	85.451878	51.306575	99.671401	20.767130	0.600415	0.000333	0.005383
0.000358	1.533519E-5	0.000263	1.427512E-5	5.201471	88.774843	50.460793	102.113977	19.631749	0.568413	0.000358	0.005442
0.000384	1.553284E-5	0.000285	1.455573E-5	5.637020	92.008748	49.484896	104.471836	18.533167	0.537828	0.000384	0.005512
0.000410	1.575969E-5	0.000309	1.483287E-5	6.109194	95.141357	48.386981	106.738829	17.471834	0.508580	0.000410	0.005593
0.000461	1.603569E-5	0.000335	1.510614E-5	6.620781	98.163817	47.177407	108.912087	16.450036	0.480599	0.000461	0.005691
0.000512	1.630671E-5	0.000363	1.537512E-5	7.175296	101.067007	45.866115	110.987568	15.468012	0.453819	0.000512	0.005787
0.000563	1.656197E-5	0.000393	1.563954E-5	7.776135	103.844949	44.464376	112.963951	14.527005	0.428180	0.000563	0.005878
0.000614	1.677452E-5	0.000426	1.589899E-5	8.427479	106.490975	42.983069	114.838461	13.626667	0.403631	0.000614	0.005953
0.000666	1.696150E-5	0.000462	1.615315E-5	9.133257	109.001035	41.434269	116.610567	12.767688	0.380127	0.000666	0.006019
0.000717	1.710805E-5	0.000500	1.640167E-5	9.898152	111.372310	39.829440	118.280073	11.949713	0.357624	0.000717	0.006071
0.000768	1.726280E-5	0.000542	1.664428E-5	10.727157	113.602992	38.180214	119.847272	11.172324	0.336085	0.000768	0.006126
0.000819	1.742392E-5	0.000587	1.688068E-5	11.625593	115.692341	36.498232	121.312978	10.434992	0.315477	0.000819	0.006183
0.000922	1.761715E-5	0.000637	1.711060E-5	12.599133	117.641582	34.794750	122.679323	9.737124	0.295769	0.000922	0.006252
0.001024	1.782716E-5	0.000690	1.733379E-5	13.654310	119.452516	33.080372	123.948435	9.077605	0.276933	0.001024	0.006327
0.001126	1.802495E-5	0.000748	1.755007E-5	14.797920	121.127610	31.365672	125.122753	8.455429	0.258947	0.001126	0.006397
0.001229	1.819603E-5	0.000810	1.775923E-5	16.037102	122.671010	29.660583	126.205891	7.869619	0.241790	0.001229	0.006457
0.001331	1.833551E-5	0.000878	1.796109E-5	17.380145	124.087314	27.974138	127.201470	7.318781	0.225439	0.001331	0.006507
0.001434	1.844981E-5	0.000952	1.815549E-5	18.835738	125.381715	26.315019	128.113445	6.801615	0.209879	0.001434	0.006548
0.001536	1.859061E-5	0.001032	1.834234E-5	20.413215	126.560286	24.691165	128.946343	6.316807	0.195094	0.001536	0.006597
0.001638	1.875390E-5	0.001118	1.852157E-5	22.123002	127.629084	23.109917	129.704477	5.862879	0.181071	0.001638	0.006655
0.001843	1.894307E-5	0.001212	1.869312E-5	23.975679	128.595165	21.577966	130.392964	5.438551	0.167798	0.001843	0.006723
0.002048	1.914276E-5	0.001313	1.885696E-5	25.983576	129.465574	20.101075	131.016747	5.042291	0.155262	0.002048	0.006793
0.002253	1.932399E-5	0.001423	1.901307E-5	28.159521	130.247818	18.684423	131.581161	4.672706	0.143453	0.002253	0.006858
0.002458	1.948375E-5	0.001542	1.916156E-5	30.517973	130.949253	17.332533	132.091346	4.328313	0.132361	0.002458	0.006914
0.002662	1.964783E-5	0.001671	1.930244E-5	33.073921	131.577413	16.049447	132.552633	4.007769	0.121977	0.002662	0.006973
0.002867	1.979452E-5	0.001811	1.943582E-5	35.843871	132.139914	14.838463	132.970436	3.709712	0.112294	0.002867	0.007025
0.003072	1.994372E-5	0.001963	1.956186E-5	38.846029	132.644064	13.702428	133.349932	3.432782	0.103302	0.003072	0.007078
0.003277	2.009664E-5	0.002127	1.968071E-5	42.099133	133.097273	12.643695	133.696473	3.175754	0.094996	0.003277	0.007132
0.003686	2.023605E-5	0.002306	1.979258E-5	45.624369	133.506938	11.663852	134.015476	2.937366	0.087365	0.003686	0.007181
0.004096	2.037305E-5	0.002499	1.989766E-5	49.445890	133.879821	10.764270	134.311861	2.716340	0.080402	0.004096	0.007230
0.004506	2.049663E-5	0.002708	1.999624E-5	53.587147	134.222635	9.946141	134.590644	2.511622	0.074102	0.004506	0.007274
0.004915	2.060056E-5	0.002935	2.008860E-5	58.074456	134.542084	9.209967	134.856945	2.322139	0.068454	0.004915	0.007311
0.005325	2.067545E-5	0.003181	2.017503E-5	62.938957	134.844159	8.556088	135.115335	2.146768	0.063452	0.005325	0.007337
0.005734	2.073584E-5	0.003447	2.025586E-5	68.210016	135.134818	7.984719	135.370510	1.984613	0.059087	0.005734	0.007359
0.006144	2.081110E-5	0.003736	2.033151E-5	73.921978	135.419774	7.495629	135.627061	1.834733	0.055351	0.006144	0.007386
0.006554	2.090772E-5	0.004049	2.040232E-5	80.113402	135.704227	7.088515	135.889235	1.696211	0.052235	0.006554	0.007420
0.007373	2.103915E-5	0.004388	2.046874E-5	86.822729	135.993195	6.762974	136.161253	1.568267	0.049730	0.007373	0.007466
0.008192	2.117311E-5	0.004755	2.053117E-5	94.093408	136.291467	6.518396	136.447255	1.450126	0.047827	0.008192	0.007514
0.009011	2.125820E-5	0.005153	2.059011E-5	101.974573	136.603333	6.354148	136.751035	1.341031	0.046515	0.009011	0.007544
0.009830	2.129529E-5	0.005585	2.064601E-5	110.514466	136.932942	6.269545	137.076394	1.240348	0.045786	0.009830	0.007557
0.010650	2.134298E-5	0.006053	2.069940E-5	119.768737	137.284201	6.263836	137.427026	1.147437	0.045627	0.010650	0.007574
0.011469	2.140380E-5	0.006559	2.075079E-5	129.799074	137.660689	6.336291	137.806437	1.061690	0.046028	0.011469	0.007596
0.012288	2.152261E-5	0.007109	2.080073E-5	140.670235	138.065706	6.486193	138.217980	0.982567	0.046979	0.012288	0.007638
0.013107	2.160346E-5	0.007704	2.084978E-5	152.451206	138.502398	6.712850	138.664979	0.909570	0.048467	0.013107	0.007667
0.014746	2.164227E-5	0.008349	2.089851E-5	165.219514	138.973632	7.015621	139.150600	0.842216	0.050482	0.014746	0.007680
0.016384	2.165864E-5	0.009049	2.094751E-5	179.056861	139.482057	7.393886	139.677893	0.780076	0.053010	0.016384	0.007686
0.018022	2.172004E-5	0.009806	2.099742E-5	194.050800	140.030333	7.847188	140.250036	0.722749	0.056039	0.018022	0.007708
0.019661	2.185978E-5	0.010628	2.104887E-5	210.304199	140.620642	8.375090	140.869824	0.669838	0.059558	0.019661	0.007758
0.021299	2.210705E-5	0.011518	2.110249E-5	227.915526	141.255321	8.977255	141.540301	0.621021	0.063553	0.021299	0.007845
0.022938	2.234781E-5	0.012482	2.115895E-5	247.004323	141.936369	9.653501	142.264272	0.575959	0.068013	0.022938	0.007931
0.024576	2.251547E-5	0.013528	2.121894E-5	267.691337	142.665765	10.403696	143.044599	0.534364	0.072924	0.024576	0.007990
0.026214	2.259088E-5	0.014661	2.128315E-5	290.111600	143.445225	11.227761	143.883964	0.495961	0.078272	0.026214	0.008017
0.029491	2.262637E-5	0.015888	2.135232E-5	314.404259	144.276729	12.125880	144.785398	0.460507	0.084046	0.029491	0.008030
0.032768	2.270346E-5	0.017219	2.142718E-5	340.735000	145.162009	13.098489	145.751773	0.427757	0.090234	0.032768	0.008057
0.036045	2.284154E-5	0.018661	2.150847E-5	369.275753	146.102511	14.145859	146.785725	0.397496	0.096821	0.036045	0.008106
0.039322	2.308224E-5	0.020224	2.159701E-5	400.202830	147.099816	15.268362	147.890090	0.369538	0.103796	0.039322	0.008191
0.042598	2.329569E-5	0.021918	2.169360E-5	433.714626	148.155890	16.466951	149.068200	0.343701	0.111146	0.042598	0.008267
0.045875	2.339955E-5	0.023753	2.179904E-5	470.044611	149.271865	17.742393	150.322594	0.319805	0.118860	0.045875	0.008304
0.049152	2.354850E-5	0.025743	2.191423E-5	509.409117	150.449474	19.095496	151.656461	0.297711	0.126923	0.049152	0.008357
0.052429	2.376041E-5	0.027899	2.204007E-5	552.069212	151.690331	20.527531	153.072976	0.277271	0.135325	0.052429	0.008432
0.058982	2.399103E-5	0.030235	2.217747E-5	598.301994	152.996073	22.039847	154.575397	0.258357	0.144055	0.058982	0.008514
0.065536	2.437638E-5	0.032768	2.232741E-5	648.407655	154.368532	23.634086	156.167262	0.240847	0.153102	0.065536	0.008651
0.072090	2.472141E-5	0.035512	2.249090E-5	702.719585	155.808818	25.311592	157.851400	0.224629	0.162453	0.072090	0.008773
0.078643	2.501307E-5	0.038486	2.266896E-5	761.561778	157.319373	27.074350	159.632094	0.209611	0.172098	0.078643	0.008877
0.085197	2.534660E-5	0.041709	2.286274E-5	825.346289	158.901691	28.924573	161.512780	0.195691	0.182028	0.085197	0.008995
0.091750	2.563275E-5	0.045202	2.307339E-5	894.472094	160.557605	30.864258	163.497238	0.182786	0.192232	0.091750	0.009097
0.098304	2.592734E-5	0.048988	2.330216E-5	969.382329	162.289140	32.895822	165.589553	0.170820	0.202699	0.098304	0.009201
0.104858	2.637600E-5	0.053091	2.355030E-5	1050.562743	164.098448	35.021983	167.794040	0.159718	0.213421	0.104858	0.009360
0.117965	2.694103E-5	0.057537	2.381919E-5	1138.541654	165.987906	37.245800	170.115357	0.149415	0.224389	0.117965	0.009561
0.131072	2.760609E-5	0.062355	2.411027E-5	1233.898967	167.959659	39.570383	172.557997	0.139848	0.235595	0.131072	0.009797
0.144179	2.831030E-5	0.067577	2.442507E-5	1337.244493	170.016018	41.998927	175.126686	0.130961	0.247029	0.144179	0.010047
0.157286	2.798828E-5	0.073237	2.476530E-5	1449.239668	172.159459	44.534923	177.826428	0.122703	0.258684	0.157286	0.009933
0.170394	2.912280E-5	0.079371	2.513264E-5	1570.602612	174.392960	47.182422	180.662905	0.115028	0.270552	0.170394	0.010335
0.183501	3.306956E-5	0.086017	2.552894E-5	1702.133531	176.719440	49.945817	183.641894	0.107889	0.282628	0.183501	0.011736
0.399815	4.043811E-5	0.093221	2.595630E-5	1844.689766	179.141708	52.829510	186.769132	0.101247	0.294903	0.399815	0.014351
0.599723	5.040331E-5	0.101029	2.641680E-5	1999.182333	181.662943	55.838242	190.050873	0.095064	0.307373	0.599723	0.017887
0.799630	6.171867E-5	0.109490	2.691272E-5	2166.609946	184.286685	58.977336	193.493950	0.089307	0.320030	0.799630	0.021903
0.999538	7.161221E-5	0.118659	2.744657E-5	2348.069286	187.016269	62.252300	197.105134	0.083943	0.332871	0.999538	0.025414
1.199445	8.164659E-5	0.128599	2.802111E-5	2544.723606	189.855643	65.669178	200.892026	0.078945	0.345890	1.199445	0.028975
1.399353	9.158103E-5	0.139367	2.863896E-5	2757.862156	192.807935	69.233847	204.861479	0.074283	0.359082	1.399353	0.032501
1.599260	0.000101	0.151040	2.930352E-5	2988.807625	195.878338	72.953597	209.022847	0.069935	0.372443	1.599260	0.035978
1.799168	0.000112	0.163688	3.001793E-5	3239.130138	199.070584	76.835752	213.384231	0.065877	0.385972	1.799168	0.039635
1.999075	0.000121	0.177399	3.078612E-5	3510.415680	202.388944	80.887697	217.954362	0.062088	0.399665	1.999075	0.042815
2.198983	0.000131	0.192253	3.161160E-5	3804.393789	205.838861	85.118199	222.743675	0.058549	0.413519	2.198983	0.046547
2.398890	0.000141	0.208356	3.249911E-5	4123.023211	209.424726	89.536045	227.761759	0.055241	0.427533	2.398890	0.050010
2.598798	0.000152	0.225807	3.345304E-5	4468.324595	213.151301	94.150230	233.018761	0.052149	0.441706	2.598798	0.053856
2.798705	0.000161	0.244716	3.447830E-5	4842.484451	217.025721	98.972179	238.528103	0.049257	0.456039	2.798705	0.057231
2.998613	0.000170	0.265210	3.558060E-5	5248.080306	221.051622	104.011928	244.299613	0.046550	0.470532	2.998613	0.060438
3.198520	0.000181	0.287422	3.676588E-5	5687.563504	225.237039	109.282240	250.348421	0.044017	0.485188	3.198520	0.064099
3.398428	0.000192	0.311494	3.804055E-5	6163.972233	229.585044	114.793954	256.684523	0.041643	0.500006	3.398428	0.068226
3.598335	0.000200	0.337581	3.941159E-5	6680.093545	234.105586	120.562448	263.326279	0.039420	0.514992	3.598335	0.070935
3.798243	0.000211	0.365850	4.088664E-5	7239.612525	238.802399	126.601095	270.285817	0.037334	0.530150	3.798243	0.074713
3.998150	0.000223	0.396494	4.247452E-5	7845.880880	243.683962	132.925888	277.580916	0.035379	0.545485	3.998150	0.079055
4.198058	0.000231	0.429703	4.418391E-5	8502.970988	248.756338	139.553201	285.227649	0.033544	0.561004	4.198058	0.082032
4.397965	0.000240	0.465688	4.602464E-5	9215.035509	254.028889	146.502559	293.246784	0.031823	0.576716	4.397965	0.085266
4.597873	0.000251	0.504685	4.800762E-5	9986.938178	259.505050	153.790396	301.652709	0.030205	0.592630	4.597873	0.089047
4.797780	0.000261	0.546954	5.014511E-5	10823.177180	265.196873	161.440037	310.471041	0.028686	0.608755	4.797780	0.092468
4.997688	0.000270	0.592766	5.244978E-5	11729.678481	271.110465	169.473811	319.722156	0.027258	0.625110	4.997688	0.095663
5.197595	0.000279	0.642406	5.493515E-5	12712.158905	277.252590	177.914228	329.427490	0.025914	0.641704	5.197595	0.098935
5.397503	0.000287	0.696211	5.761730E-5	13776.768049	283.632080	186.787451	339.612586	0.024651	0.658555	5.397503	0.101922
5.597410	0.000296	0.754512	6.051212E-5	14930.461185	290.258619	196.123258	350.306149	0.023463	0.675685	5.597410	0.104881
5.797318	0.000302	0.817698	6.363835E-5	16180.960262	297.138336	205.950547	361.533980	0.022343	0.693113	5.797318	0.107336
5.997225	0.000315	0.886181	6.701603E-5	17536.059850	304.280656	216.302632	373.327667	0.021289	0.710866	5.997225	0.111825
6.197133	0.000324	0.960399	7.066637E-5	19004.689354	311.692860	227.214508	385.718643	0.020296	0.728969	6.197133	0.114885
6.397040	0.000331	1.040831	7.461295E-5	20596.234027	319.383951	238.725430	398.742949	0.019360	0.747456	6.397040	0.117580
6.596948	0.000342	1.127997	7.888129E-5	22321.178203	327.360154	250.875821	412.435871	0.018477	0.766360	6.596948	0.121336
6.796855	0.000349	1.222473	8.349967E-5	24190.441455	335.630509	263.712149	426.839473	0.017645	0.785722	6.796855	0.123799
6.996763	0.000356	1.324845	8.849711E-5	26216.439245	344.201766	277.283954	441.996885	0.016860	0.805586	6.996763	0.126422
