MicroRheology Analysis v9.2.8
10/03/18 5:32:26 PM

Correlation Mode:	Cross
Geometry:	Transmission
Multi-Tau Duration (s):	120
Echo Duration (s):	60
Wavelength (nm):	685.0
Temperature (°C):	20.01
Cuvette Thickness (mm):	10.00
Absorption Length (mm):	150.569
Solvent:	Water
Solvent Refractive Index:	1.329
Particle Radius (nm):	300.0
Mean Count Rate (kHz):	119.2
l* (microns):	864.42



Lag Time (s)	Mean Square Displacement (micron^2)	Fit Lag Time (s)	Mean Square Displacement Fit (micron^2)	Frequency(rad/s)	G1 (Pa)	G2 (Pa)	G* (Pa)	Complex Viscosity (Pa s)	Loss Tangent (-)	Time (s)	Creep Compliance (1/Pa)

2.812500E-6	1.643285E-6	2.812512E-6	1.600268E-6	0.079401	1.352727	20.403261	20.448055	257.529389	15.083065	2.812500E-6	0.000383
3.012500E-6	1.733331E-6	3.048619E-6	1.701105E-6	0.086066	2.424983	22.118909	22.251442	258.538835	9.121262	3.012500E-6	0.000404
3.212500E-6	1.818375E-6	3.304526E-6	1.807595E-6	0.093290	3.638514	23.870057	24.145774	258.826202	6.560385	3.212500E-6	0.000423
3.612500E-6	1.898467E-6	3.581875E-6	1.919950E-6	0.101121	4.996935	25.646737	26.128997	258.392720	5.132493	3.612500E-6	0.000442
4.012500E-6	2.045132E-6	3.882602E-6	2.038438E-6	0.109610	6.502599	27.439074	28.199053	257.266955	4.219709	4.012500E-6	0.000476
4.412500E-6	2.127819E-6	4.208495E-6	2.163210E-6	0.118811	8.156693	29.236523	30.353021	255.472550	3.584360	4.412500E-6	0.000495
4.812500E-6	2.188896E-6	4.561744E-6	2.294506E-6	0.128783	9.959884	31.029550	32.588836	253.052766	3.115453	4.812500E-6	0.000510
5.212500E-6	2.349997E-6	4.944662E-6	2.432542E-6	0.139594	11.910991	32.806662	34.901988	250.024413	2.754318	5.212500E-6	0.000547
5.612500E-6	2.586947E-6	5.359707E-6	2.577510E-6	0.151311	14.008095	34.558076	37.289239	246.441292	2.467008	5.612500E-6	0.000602
6.012500E-6	2.931212E-6	5.809568E-6	2.729605E-6	0.164012	16.247972	36.273021	39.745801	242.334328	2.232464	6.012500E-6	0.000683
6.412500E-6	3.062044E-6	6.297292E-6	2.889059E-6	0.177778	18.626855	37.942146	42.267791	237.755427	2.036959	6.412500E-6	0.000713
7.212500E-6	3.258168E-6	6.825843E-6	3.055987E-6	0.192704	21.138800	39.554606	44.848809	232.734116	1.871185	7.212500E-6	0.000759
8.012500E-6	3.485098E-6	7.398888E-6	3.230634E-6	0.208877	23.778283	41.102451	47.484926	227.333920	1.728571	8.012500E-6	0.000812
8.812500E-6	3.822733E-6	8.019942E-6	3.413099E-6	0.226413	26.537930	42.576090	50.169565	221.584092	1.604349	8.812500E-6	0.000890
9.612500E-6	4.049070E-6	8.693124E-6	3.603556E-6	0.245419	29.409591	43.967665	52.896877	215.537252	1.495011	9.612500E-6	0.000943
1.041250E-5	4.261604E-6	9.422754E-6	3.802128E-6	0.266017	32.385431	45.270433	55.661730	209.241144	1.397864	1.041250E-5	0.000992
1.121250E-5	4.379931E-6	1.021385E-5	4.009009E-6	0.288350	35.455583	46.476922	58.456844	202.729101	1.310849	1.121250E-5	0.001020
1.201250E-5	4.562301E-6	1.107124E-5	4.224224E-6	0.312552	38.610754	47.582074	61.276783	196.053253	1.232353	1.201250E-5	0.001062
1.281250E-5	4.762232E-6	1.200041E-5	4.447840E-6	0.338788	41.840643	48.580473	64.114755	189.247293	1.161083	1.281250E-5	0.001109
1.441250E-5	5.013746E-6	1.300773E-5	4.680015E-6	0.367225	45.134945	49.468255	66.964703	182.353275	1.096008	1.441250E-5	0.001167
1.601250E-5	5.248374E-6	1.409969E-5	4.920781E-6	0.398050	48.482910	50.241984	69.820123	175.405419	1.036282	1.601250E-5	0.001222
1.761250E-5	5.475523E-6	1.528336E-5	5.170161E-6	0.431461	51.874453	50.899645	72.675530	168.440567	0.981208	1.761250E-5	0.001275
1.921250E-5	5.681794E-6	1.656619E-5	5.428118E-6	0.467685	55.297367	51.438691	75.523094	161.482798	0.930220	1.921250E-5	0.001323
2.081250E-5	5.913543E-6	1.795660E-5	5.694663E-6	0.506936	58.742193	51.859580	78.358543	154.572965	0.882834	2.081250E-5	0.001377
2.241250E-5	6.175675E-6	1.946390E-5	5.969808E-6	0.549491	62.197786	52.161465	81.175015	147.727573	0.838639	2.241250E-5	0.001438
2.401250E-5	6.503600E-6	2.109785E-5	6.253488E-6	0.595614	65.654420	52.345738	83.967727	140.976720	0.797292	2.401250E-5	0.001514
2.561250E-5	6.960015E-6	2.286897E-5	6.545601E-6	0.645618	69.100747	52.413163	86.729769	134.335943	0.758504	2.561250E-5	0.001621
2.881250E-5	7.425742E-6	2.478864E-5	6.846018E-6	0.699802	72.528533	52.366951	89.457732	127.832854	0.722019	2.881250E-5	0.001729
3.201250E-5	7.834317E-6	2.686905E-5	7.154568E-6	0.758551	75.927709	52.209032	92.145537	121.475660	0.687615	3.201250E-5	0.001824
3.521250E-5	8.184253E-6	2.912442E-5	7.471198E-6	0.822225	79.289528	51.943246	94.788871	115.283438	0.655109	3.521250E-5	0.001906
3.841250E-5	8.442489E-6	3.156937E-5	7.795708E-6	0.891241	82.606068	51.573481	97.383707	109.267524	0.624330	3.841250E-5	0.001966
4.161250E-5	8.781723E-6	3.421958E-5	8.127862E-6	0.966058	85.869042	51.103892	99.925473	103.436360	0.595138	4.161250E-5	0.002045
4.481250E-5	9.176487E-6	3.709167E-5	8.467352E-6	1.047144	89.071550	50.539530	102.410864	97.800179	0.567404	4.481250E-5	0.002137
4.801250E-5	9.565228E-6	4.020508E-5	8.814013E-6	1.135037	92.207513	49.885446	104.836936	92.364355	0.541013	4.801250E-5	0.002227
5.121250E-5	9.947580E-6	4.358023E-5	9.167571E-6	1.230322	95.270022	49.146789	107.199739	87.131431	0.515868	5.121250E-5	0.002316
5.761250E-5	1.039041E-5	4.723873E-5	9.527681E-6	1.333584	98.254555	48.329661	109.497551	82.107728	0.491882	5.761250E-5	0.002419
6.401250E-5	1.087953E-5	5.120359E-5	9.893937E-6	1.445529	101.156094	47.439512	111.727627	77.291845	0.468973	6.401250E-5	0.002533
7.041250E-5	1.138822E-5	5.550148E-5	1.026607E-5	1.566869	103.970923	46.482477	113.888426	72.685365	0.447072	7.041250E-5	0.002652
7.681250E-5	1.186330E-5	6.016083E-5	1.064374E-5	1.698414	106.694457	45.464423	115.977243	68.285604	0.426118	7.681250E-5	0.002762
8.321250E-5	1.231093E-5	6.521076E-5	1.102644E-5	1.840959	109.324848	44.391880	117.993904	64.093718	0.406055	8.321250E-5	0.002867
8.961250E-5	1.262750E-5	7.068467E-5	1.141382E-5	1.995495	111.859640	43.270471	119.937120	60.103949	0.386828	8.961250E-5	0.002940
9.601250E-5	1.299507E-5	7.661717E-5	1.180535E-5	2.163012	114.296795	42.106366	121.806007	56.313141	0.368395	9.601250E-5	0.003026
0.000102	1.343326E-5	8.304888E-5	1.220074E-5	2.344583	116.634814	40.905657	123.599970	52.717259	0.350716	0.000102	0.003128
0.000115	1.390262E-5	9.002005E-5	1.259940E-5	2.541360	118.873946	39.674213	125.319824	49.312108	0.333750	0.000115	0.003237
0.000128	1.443264E-5	9.757739E-5	1.300092E-5	2.754711	121.012989	38.417478	126.964744	46.090039	0.317466	0.000128	0.003361
0.000141	1.501156E-5	0.000106	1.340470E-5	2.985916	123.052987	37.141345	128.536054	43.047450	0.301832	0.000141	0.003495
0.000154	1.545724E-5	0.000115	1.381029E-5	3.236574	124.994466	35.850829	130.034221	40.176502	0.286819	0.000154	0.003599
0.000166	1.587414E-5	0.000124	1.421723E-5	3.508295	126.837690	34.551360	131.459484	37.471049	0.272406	0.000166	0.003696
0.000179	1.623288E-5	0.000135	1.462495E-5	3.802722	128.585403	33.247973	132.814283	34.926111	0.258567	0.000179	0.003780
0.000192	1.660292E-5	0.000146	1.503284E-5	4.121983	130.238506	31.944997	134.099035	32.532652	0.245281	0.000192	0.003866
0.000205	1.703411E-5	0.000158	1.544055E-5	4.467985	131.799285	30.647323	135.315594	30.285598	0.232530	0.000205	0.003966
0.000230	1.753549E-5	0.000172	1.584747E-5	4.843017	133.270387	29.359009	136.465920	28.177873	0.220297	0.000230	0.004083
0.000256	1.803079E-5	0.000186	1.625307E-5	5.249576	134.653877	28.084101	137.551384	26.202381	0.208565	0.000256	0.004199
0.000282	1.852718E-5	0.000202	1.665676E-5	5.690143	135.953480	26.826351	138.574896	24.353501	0.197320	0.000282	0.004314
0.000307	1.893831E-5	0.000218	1.705814E-5	6.167851	137.171492	25.589062	139.537874	22.623418	0.186548	0.000307	0.004410
0.000333	1.932150E-5	0.000237	1.745674E-5	6.685545	138.311466	24.375763	140.443011	21.006964	0.176238	0.000333	0.004499
0.000358	1.962721E-5	0.000257	1.785184E-5	7.246716	139.376815	23.189248	141.292738	19.497485	0.166378	0.000358	0.004570
0.000384	1.993773E-5	0.000278	1.824320E-5	7.855036	140.370855	22.032329	142.089410	18.088957	0.156958	0.000384	0.004643
0.000410	2.027231E-5	0.000302	1.863022E-5	8.514375	141.297448	20.907514	142.835896	16.775852	0.147968	0.000410	0.004720
0.000461	2.067168E-5	0.000327	1.901241E-5	9.229194	142.159688	19.817200	143.534311	15.552204	0.139401	0.000461	0.004813
0.000512	2.110740E-5	0.000354	1.938944E-5	10.003742	142.962023	18.763472	144.188099	14.413417	0.131248	0.000512	0.004915
0.000563	2.154045E-5	0.000384	1.976083E-5	10.843615	143.707580	17.748092	144.799390	13.353424	0.123501	0.000563	0.005016
0.000614	2.188341E-5	0.000416	2.012616E-5	11.753728	144.400539	16.772932	145.371410	12.368110	0.116156	0.000614	0.005096
0.000666	2.216778E-5	0.000451	2.048509E-5	12.740382	145.044544	15.839334	145.906834	11.452312	0.109203	0.000666	0.005162
0.000717	2.238578E-5	0.000489	2.083715E-5	13.809846	145.643302	14.948762	146.408459	10.601744	0.102640	0.000717	0.005213
0.000768	2.261520E-5	0.000530	2.118215E-5	14.968947	146.200830	14.102308	146.879399	9.812273	0.096458	0.000768	0.005266
0.000819	2.288725E-5	0.000575	2.151977E-5	16.225628	146.720516	13.301033	147.322188	9.079598	0.090656	0.000819	0.005329
0.000922	2.319909E-5	0.000623	2.184955E-5	17.587436	147.206424	12.545844	147.740074	8.400319	0.085226	0.000922	0.005402
0.001024	2.353270E-5	0.000675	2.217139E-5	19.063966	147.661929	11.837439	148.135648	7.770453	0.080166	0.001024	0.005480
0.001126	2.384645E-5	0.000732	2.248504E-5	20.664204	148.090731	11.176584	148.511888	7.186916	0.075471	0.001126	0.005553
0.001229	2.410086E-5	0.000793	2.279020E-5	22.398777	148.496370	10.563767	148.871640	6.646418	0.071138	0.001229	0.005612
0.001331	2.432543E-5	0.000860	2.308675E-5	24.278971	148.882290	9.999465	149.217712	6.145965	0.067164	0.001331	0.005664
0.001434	2.451219E-5	0.000932	2.337457E-5	26.316897	149.251968	9.484042	149.552990	5.682774	0.063544	0.001434	0.005708
0.001536	2.468689E-5	0.001010	2.365347E-5	28.526107	149.608581	9.017846	149.880116	5.254138	0.060276	0.001536	0.005748
0.001638	2.488616E-5	0.001095	2.392331E-5	30.920208	149.955647	8.601096	150.202114	4.857733	0.057358	0.001638	0.005795
0.001843	2.511487E-5	0.001187	2.418417E-5	33.516166	150.296084	8.233999	150.521466	4.491011	0.054785	0.001843	0.005848
0.002048	2.535772E-5	0.001287	2.443586E-5	36.329329	150.633145	7.916790	150.841042	4.152046	0.052557	0.002048	0.005905
0.002253	2.559499E-5	0.001395	2.467847E-5	39.378878	150.969761	7.649586	151.163438	3.838693	0.050670	0.002253	0.005960
0.002458	2.579982E-5	0.001512	2.491194E-5	42.683891	151.309083	7.432498	151.491520	3.549150	0.049121	0.002458	0.006008
0.002662	2.598667E-5	0.001639	2.513630E-5	46.267655	151.653719	7.265667	151.827667	3.281508	0.047910	0.002662	0.006051
0.002867	2.615861E-5	0.001776	2.535165E-5	50.150932	152.006616	7.149251	152.174646	3.034333	0.047032	0.002867	0.006091
0.003072	2.633412E-5	0.001926	2.555805E-5	54.360305	152.370564	7.083350	152.535120	2.806002	0.046488	0.003072	0.006132
0.003277	2.652711E-5	0.002087	2.575566E-5	58.924023	152.748106	7.068132	152.911551	2.595063	0.046273	0.003277	0.006177
0.003686	2.673944E-5	0.002262	2.594457E-5	63.870293	153.141865	7.103786	153.306538	2.400279	0.046387	0.003686	0.006226
0.004096	2.695031E-5	0.002452	2.612495E-5	69.231627	153.554333	7.190514	153.722597	2.220410	0.046827	0.004096	0.006275
0.004506	2.714394E-5	0.002658	2.629695E-5	75.042271	153.988086	7.328583	154.162378	2.054341	0.047592	0.004506	0.006321
0.004915	2.730045E-5	0.002881	2.646084E-5	81.341723	154.445434	7.518300	154.628319	1.900972	0.048679	0.004915	0.006357
0.005325	2.743279E-5	0.003123	2.661675E-5	88.169293	154.928832	7.760037	155.123051	1.759377	0.050088	0.005325	0.006388
0.005734	2.753586E-5	0.003385	2.676502E-5	95.571174	155.440487	8.054220	155.649014	1.628619	0.051815	0.005734	0.006412
0.006144	2.763894E-5	0.003669	2.690584E-5	103.593725	155.982663	8.401311	156.208749	1.507898	0.053861	0.006144	0.006436
0.006554	2.775769E-5	0.003977	2.703949E-5	112.289094	156.557582	8.801875	156.804813	1.396438	0.056221	0.006554	0.006463
0.007373	2.789982E-5	0.004311	2.716632E-5	121.713808	157.167539	9.256625	157.439895	1.293525	0.058897	0.007373	0.006497
0.008192	2.804328E-5	0.004673	2.728659E-5	131.931594	157.814495	9.766265	158.116396	1.198473	0.061884	0.008192	0.006530
0.009011	2.816058E-5	0.005066	2.740064E-5	143.004863	158.500702	10.331614	158.837070	1.110711	0.065183	0.009011	0.006557
0.009830	2.823081E-5	0.005491	2.750881E-5	155.008499	159.228306	10.953717	159.604628	1.029651	0.068793	0.009830	0.006574
0.010650	2.827463E-5	0.005952	2.761145E-5	168.021827	159.999180	11.633544	160.421560	0.954766	0.072710	0.010650	0.006584
0.011469	2.832735E-5	0.006451	2.770895E-5	182.124888	160.815524	12.372239	161.290747	0.885605	0.076934	0.011469	0.006596
0.012288	2.836097E-5	0.006993	2.780165E-5	197.412636	161.679305	13.171124	162.214908	0.821705	0.081464	0.012288	0.006604
0.013107	2.835153E-5	0.007580	2.788996E-5	213.982437	162.592695	14.031657	163.197034	0.762666	0.086299	0.013107	0.006602
0.014746	2.830333E-5	0.008216	2.797428E-5	231.945255	163.557667	14.955440	164.239994	0.708098	0.091438	0.014746	0.006591
0.016384	2.825104E-5	0.008906	2.805501E-5	251.416424	164.576103	15.944044	165.346625	0.657660	0.096879	0.016384	0.006578
0.018022	2.826263E-5	0.009653	2.813258E-5	272.518383	165.650243	16.999357	166.520212	0.611042	0.102622	0.018022	0.006581
0.019661	2.843234E-5	0.010463	2.820741E-5	295.393012	166.782248	18.123582	167.764068	0.567935	0.108666	0.019661	0.006621
0.021299	2.873011E-5	0.011342	2.827995E-5	320.192079	167.973790	19.318712	169.081066	0.528061	0.115010	0.021299	0.006690
0.022938	2.905836E-5	0.012294	2.835062E-5	347.065787	169.227455	20.587209	170.475114	0.491190	0.121654	0.022938	0.006766
0.024576	2.930156E-5	0.013326	2.841989E-5	376.202214	170.544946	21.931644	171.949340	0.457066	0.128597	0.024576	0.006823
0.026214	2.935852E-5	0.014444	2.848821E-5	407.779269	171.928729	23.354753	173.507730	0.425494	0.135840	0.026214	0.006836
0.029491	2.929843E-5	0.015657	2.855605E-5	442.011105	173.380792	24.859558	175.153922	0.396266	0.143381	0.029491	0.006822
0.032768	2.924789E-5	0.016971	2.862389E-5	479.114769	174.903472	26.449229	176.892018	0.369206	0.151222	0.032768	0.006810
0.036045	2.934096E-5	0.018396	2.869221E-5	519.334981	176.498751	28.127068	178.725883	0.344144	0.159361	0.036045	0.006832
0.039322	2.956785E-5	0.019940	2.876148E-5	562.924286	178.169293	29.896830	180.660227	0.320932	0.167800	0.039322	0.006885
0.042598	2.977249E-5	0.021613	2.883222E-5	610.176559	179.917234	31.762485	182.699389	0.299421	0.176539	0.042598	0.006933
0.045875	2.982141E-5	0.023428	2.890494E-5	661.391999	181.745203	33.728270	184.848357	0.279484	0.185580	0.045875	0.006944
0.049152	2.988659E-5	0.025394	2.898012E-5	716.910185	183.655764	35.798864	187.112261	0.260998	0.194924	0.049152	0.006959
0.052429	2.996110E-5	0.027526	2.905831E-5	777.096027	185.650870	37.978727	189.495724	0.243851	0.204571	0.052429	0.006977
0.058982	3.010393E-5	0.029836	2.914002E-5	842.320039	187.733943	40.273241	192.005123	0.227948	0.214523	0.058982	0.007010
0.065536	3.041671E-5	0.032341	2.922584E-5	913.034237	189.906567	42.687532	194.645137	0.213185	0.224782	0.065536	0.007083
0.072090	3.065243E-5	0.035056	2.931625E-5	989.658661	192.172702	45.227716	197.423133	0.199486	0.235349	0.072090	0.007138
0.078643	3.083925E-5	0.037998	2.941187E-5	1072.733560	194.534836	47.900380	200.345324	0.186761	0.246230	0.078643	0.007181
0.085197	3.113550E-5	0.041188	2.951326E-5	1162.789760	196.995382	50.711650	203.417924	0.174940	0.257426	0.085197	0.007250
0.091750	3.132936E-5	0.044645	2.962101E-5	1260.390770	199.557709	53.668565	206.648479	0.163956	0.268938	0.091750	0.007295
0.098304	3.146895E-5	0.048393	2.973572E-5	1366.182498	202.225460	56.779206	210.045269	0.153746	0.280772	0.098304	0.007328
0.104858	3.170536E-5	0.052455	2.985803E-5	1480.877351	205.000946	60.051228	213.615397	0.144249	0.292931	0.104858	0.007383
0.117965	3.194563E-5	0.056859	2.998860E-5	1605.183681	207.887478	63.492711	217.367265	0.135416	0.305419	0.117965	0.007439
0.131072	3.228254E-5	0.061631	3.012803E-5	1739.902949	210.889970	67.113829	221.311648	0.127198	0.318241	0.131072	0.007517
0.144179	3.271818E-5	0.066805	3.027708E-5	1885.981493	214.010302	70.923771	225.456405	0.119543	0.331404	0.144179	0.007619
0.157286	3.281394E-5	0.072412	3.043639E-5	2044.297425	217.252164	74.932082	229.811487	0.112416	0.344908	0.157286	0.007641
0.170394	3.338262E-5	0.078491	3.060675E-5	2215.869562	220.620711	79.150734	234.389285	0.105778	0.358764	0.170394	0.007773
0.183501	3.473613E-5	0.085079	3.078891E-5	2401.882695	224.118810	83.591277	239.200214	0.099589	0.372978	0.183501	0.008088
0.399815	3.725882E-5	0.092220	3.098364E-5	2603.499883	227.750975	88.266078	244.256847	0.093819	0.387555	0.399815	0.008676
0.599722	4.052558E-5	0.099963	3.119185E-5	2822.051520	231.521159	93.188380	249.571876	0.088436	0.402505	0.599722	0.009437
0.799630	4.428285E-5	0.108352	3.141429E-5	3058.947725	235.433084	98.371673	255.158231	0.083414	0.417833	0.799630	0.010311
0.999537	4.765346E-5	0.117448	3.165202E-5	3315.687828	239.492578	103.831780	261.032054	0.078726	0.433549	0.999537	0.011096
1.199450	5.085277E-5	0.127307	3.190590E-5	3594.016661	243.703847	109.584983	267.208596	0.074348	0.449665	1.199450	0.011841
1.399350	5.396314E-5	0.137994	3.217697E-5	3895.730318	248.070144	115.646831	273.702367	0.070257	0.466186	1.399350	0.012566
1.599260	5.715819E-5	0.149576	3.246629E-5	4222.681599	252.599721	122.037584	280.534831	0.066435	0.483126	1.599260	0.013310
1.799170	6.015687E-5	0.162131	3.277498E-5	4577.204041	257.294509	128.775261	287.721275	0.062860	0.500498	1.799170	0.014008
1.999070	6.336991E-5	0.175743	3.310431E-5	4961.411434	262.160659	135.879801	295.282122	0.059516	0.518307	1.999070	0.014756
2.198980	6.647507E-5	0.190492	3.345538E-5	5377.821872	267.205206	143.374793	303.240751	0.056387	0.536572	2.198980	0.015479
2.398890	6.959197E-5	0.206483	3.382973E-5	5829.261285	272.432674	151.283366	311.618707	0.053458	0.555306	2.398890	0.016205
2.598800	7.287541E-5	0.223815	3.422865E-5	6318.595037	277.849298	159.630342	320.440445	0.050714	0.574521	2.598800	0.016969
2.798700	7.609507E-5	0.242602	3.465374E-5	6849.016714	283.459552	168.440766	329.729600	0.048143	0.594232	2.798700	0.017719
2.998610	7.923889E-5	0.262970	3.510668E-5	7423.827510	289.273073	177.745513	339.517861	0.045734	0.614456	2.998610	0.018451
3.198520	8.241678E-5	0.285039	3.558897E-5	8047.021833	295.294572	187.574564	349.832962	0.043474	0.635212	3.198520	0.019191
3.398430	8.557408E-5	0.308969	3.610282E-5	8722.535525	301.530339	197.958992	360.705292	0.041353	0.656514	3.398430	0.019926
3.598330	8.886220E-5	0.334906	3.665001E-5	9454.678182	307.988397	208.933884	372.169613	0.039364	0.678382	3.598330	0.020692
3.798240	9.199161E-5	0.363014	3.723264E-5	10248.275437	314.677414	220.537992	384.264077	0.037495	0.700838	3.798240	0.021421
3.998150	9.508698E-5	0.393490	3.785327E-5	11108.636340	321.602401	232.808518	397.023816	0.035740	0.723902	3.998150	0.022141
4.198060	9.826056E-5	0.426515	3.851407E-5	12041.102216	328.773456	245.788682	410.492462	0.034091	0.747593	4.198060	0.022880
4.397960	0.000101	0.462318	3.921802E-5	13051.904842	336.196262	259.521210	424.710708	0.032540	0.771934	4.397960	0.023609
4.597870	0.000105	0.501129	3.996794E-5	14147.340127	343.883153	274.057264	439.730607	0.031082	0.796949	4.597870	0.024338
4.797780	0.000108	0.543195	4.076691E-5	15334.892475	351.841084	289.447460	455.600681	0.029710	0.822665	4.797780	0.025066
4.997690	0.000111	0.588785	4.161820E-5	16622.110372	360.081218	305.748116	472.377385	0.028419	0.849109	4.997690	0.025922
5.197590	0.000113	0.638216	4.252593E-5	18017.537198	368.610495	323.014943	490.114629	0.027202	0.876304	5.197590	0.026414
5.397500	0.000117	0.691788	4.349371E-5	19529.879659	377.440871	341.311202	508.876161	0.026056	0.904277	5.397500	0.027221
5.597410	0.000120	0.749859	4.452603E-5	21169.068444	386.586044	360.708470	528.733741	0.024977	0.933061	5.597410	0.027953
5.797320	0.000123	0.812795	4.562747E-5	22946.184025	396.054755	381.276744	549.755695	0.023958	0.962687	5.797320	0.028581
