MicroRheology Analysis v9.2.8
10/03/18 5:25:36 PM

Correlation Mode:	Cross
Geometry:	Transmission
Multi-Tau Duration (s):	120
Echo Duration (s):	60
Wavelength (nm):	685.0
Temperature (°C):	25.00
Cuvette Thickness (mm):	10.00
Absorption Length (mm):	Inf
Solvent:	Water
Solvent Refractive Index:	1.329
Particle Radius (nm):	300.0
Mean Count Rate (kHz):	111.2
l* (microns):	667.86



Lag Time (s)	Mean Square Displacement (micron^2)	Fit Lag Time (s)	Mean Square Displacement Fit (micron^2)	Frequency(rad/s)	G1 (Pa)	G2 (Pa)	G* (Pa)	Complex Viscosity (Pa s)	Loss Tangent (-)	Time (s)	Creep Compliance (1/Pa)

1.412500E-6	9.284100E-7	1.412519E-6	1.006705E-6	0.079401	-0.382547	14.325498	14.330605	180.484116	-37.447645	1.412500E-6	0.000213
1.512500E-6	9.597591E-7	1.531412E-6	1.077520E-6	0.086085	0.090489	15.662931	15.663193	181.949738	173.091968	1.512500E-6	0.000220
1.612500E-6	1.044470E-6	1.660349E-6	1.152104E-6	0.093332	0.652541	17.073303	17.085768	183.063835	26.164327	1.612500E-6	0.000239
1.812500E-6	1.182713E-6	1.800116E-6	1.230549E-6	0.101188	1.311427	18.555063	18.601350	183.830179	14.148755	1.812500E-6	0.000271
2.012500E-6	1.398503E-6	1.951651E-6	1.312990E-6	0.109707	2.074764	20.104468	20.211242	184.229081	9.690003	2.012500E-6	0.000320
2.212500E-6	1.640313E-6	2.115929E-6	1.399543E-6	0.118942	2.949869	21.717771	21.917192	184.267475	7.362284	2.212500E-6	0.000376
2.412500E-6	1.831910E-6	2.294035E-6	1.490336E-6	0.128955	3.943939	23.390276	23.720449	183.944231	5.930690	2.412500E-6	0.000419
2.612500E-6	1.910851E-6	2.487189E-6	1.585519E-6	0.139810	5.063727	25.116367	25.621733	183.261219	4.960055	2.612500E-6	0.000438
2.812500E-6	1.871450E-6	2.696529E-6	1.685150E-6	0.151579	6.315510	26.889690	27.621388	182.224091	4.257723	2.812500E-6	0.000428
3.012500E-6	1.716908E-6	2.923523E-6	1.789398E-6	0.164340	7.704761	28.702669	29.718791	180.837060	3.725316	3.012500E-6	0.000393
3.212500E-6	1.838215E-6	3.169629E-6	1.898367E-6	0.178173	9.236556	30.547841	31.913705	179.115921	3.307276	3.212500E-6	0.000421
3.612500E-6	2.081188E-6	3.436494E-6	2.012190E-6	0.193173	10.914803	32.415939	34.204182	177.064657	2.969906	3.612500E-6	0.000477
4.012500E-6	2.349156E-6	3.725758E-6	2.130935E-6	0.209433	12.742940	34.298369	36.589078	174.705272	2.691559	4.012500E-6	0.000538
4.412500E-6	2.502558E-6	4.039383E-6	2.254743E-6	0.227064	14.723163	36.184907	39.065573	172.046178	2.457686	4.412500E-6	0.000573
4.812500E-6	2.551785E-6	4.379466E-6	2.383739E-6	0.246179	16.856720	38.065548	41.630937	169.108198	2.258182	4.812500E-6	0.000584
5.212500E-6	2.576134E-6	4.748157E-6	2.517997E-6	0.266905	19.143562	39.929416	44.281308	165.906911	2.085788	5.212500E-6	0.000590
5.612500E-6	2.689270E-6	5.147846E-6	2.657611E-6	0.289372	21.582794	41.766034	47.012962	162.465223	1.935154	5.612500E-6	0.000616
6.012500E-6	2.954985E-6	5.581132E-6	2.802673E-6	0.313733	24.172136	43.564279	49.821065	158.801008	1.802252	6.012500E-6	0.000677
6.412500E-6	3.123391E-6	6.050953E-6	2.953308E-6	0.340142	26.908334	45.313503	52.700778	154.937790	1.683995	6.412500E-6	0.000715
7.212500E-6	3.278335E-6	6.560345E-6	3.109589E-6	0.368773	29.787333	47.003313	55.647072	150.897700	1.577963	7.212500E-6	0.000751
8.012500E-6	3.484369E-6	7.112607E-6	3.271584E-6	0.399821	32.802945	48.622545	58.653091	146.698373	1.482262	8.012500E-6	0.000798
8.812500E-6	3.734688E-6	7.711378E-6	3.439374E-6	0.433477	35.948857	50.161835	61.713289	142.368162	1.395367	8.812500E-6	0.000855
9.612500E-6	3.877476E-6	8.360566E-6	3.613022E-6	0.469970	39.217100	51.611157	64.820464	137.924780	1.316037	9.612500E-6	0.000888
1.041250E-5	4.089733E-6	9.064313E-6	3.792560E-6	0.509532	42.598929	52.961754	67.967758	133.392627	1.243265	1.041250E-5	0.000936
1.121250E-5	4.263601E-6	9.827465E-6	3.978101E-6	0.552422	46.085389	54.205779	71.148644	128.793993	1.176203	1.121250E-5	0.000976
1.201250E-5	4.439739E-6	1.065464E-5	4.169597E-6	0.598931	49.665496	55.335132	74.354814	124.145774	1.114156	1.201250E-5	0.001017
1.281250E-5	4.610785E-6	1.155160E-5	4.367166E-6	0.649351	53.328015	56.343497	77.578778	119.471327	1.056546	1.281250E-5	0.001056
1.441250E-5	4.820777E-6	1.252409E-5	4.570800E-6	0.704009	57.061635	57.225435	80.813246	114.790132	1.002871	1.441250E-5	0.001104
1.601250E-5	5.022546E-6	1.357831E-5	4.780484E-6	0.763268	60.854835	57.976465	84.051064	110.119984	0.952701	1.601250E-5	0.001150
1.761250E-5	5.215775E-6	1.472149E-5	4.996285E-6	0.827526	64.694281	58.592338	87.283516	105.475206	0.905680	1.761250E-5	0.001194
1.921250E-5	5.449234E-6	1.596078E-5	5.218138E-6	0.897182	68.568357	59.071320	90.504367	100.876296	0.861495	1.921250E-5	0.001248
2.081250E-5	5.697321E-6	1.730422E-5	5.446015E-6	0.972718	72.463462	59.411050	93.704995	96.333175	0.819876	2.081250E-5	0.001304
2.241250E-5	5.929474E-6	1.876085E-5	5.679932E-6	1.054601	76.367385	59.611675	96.878941	91.863159	0.780591	2.241250E-5	0.001358
2.401250E-5	6.227273E-6	2.034033E-5	5.919864E-6	1.143384	80.267286	59.673381	100.018747	87.476111	0.743433	2.401250E-5	0.001426
2.561250E-5	6.587888E-6	2.205247E-5	6.165680E-6	1.239634	84.150815	59.597888	103.117738	83.184035	0.708227	2.561250E-5	0.001508
2.881250E-5	6.951072E-6	2.390901E-5	6.417393E-6	1.343979	88.006495	59.387825	106.169943	78.996724	0.674812	2.881250E-5	0.001591
3.201250E-5	7.311338E-6	2.592142E-5	6.674832E-6	1.457114	91.822717	59.046409	109.169088	74.921437	0.643048	3.201250E-5	0.001674
3.521250E-5	7.625594E-6	2.810377E-5	6.938022E-6	1.579769	95.589178	58.578098	112.110144	70.966148	0.612811	3.521250E-5	0.001746
3.841250E-5	7.868056E-6	3.046956E-5	7.206761E-6	1.712771	99.295092	57.987576	114.987279	67.135226	0.583992	3.841250E-5	0.001801
4.161250E-5	8.141448E-6	3.303449E-5	7.480955E-6	1.856963	102.930402	57.280749	117.795381	63.434417	0.556500	4.161250E-5	0.001864
4.481250E-5	8.447671E-6	3.581535E-5	7.760474E-6	2.013266	106.487546	56.464270	120.531371	59.868591	0.530243	4.481250E-5	0.001934
4.801250E-5	8.788358E-6	3.883006E-5	8.045148E-6	2.182762	109.957216	55.544427	123.189986	56.437652	0.505146	4.801250E-5	0.002012
5.121250E-5	9.151007E-6	4.209934E-5	8.334901E-6	2.366476	113.334132	54.529256	125.769890	53.146484	0.481137	5.121250E-5	0.002095
5.761250E-5	9.552434E-6	4.564289E-5	8.629415E-6	2.565735	116.610218	53.425585	128.266271	49.992021	0.458155	5.761250E-5	0.002187
6.401250E-5	9.966831E-6	4.948577E-5	8.928652E-6	2.781703	119.780957	52.242239	130.677960	46.977684	0.436148	6.401250E-5	0.002282
7.041250E-5	1.037527E-5	5.365074E-5	9.232230E-6	3.015872	122.841683	50.986965	133.002818	44.100954	0.415062	7.041250E-5	0.002375
7.681250E-5	1.076133E-5	5.816743E-5	9.540108E-6	3.269747	125.788675	49.668213	135.239499	41.360845	0.394854	7.681250E-5	0.002464
8.321250E-5	1.111915E-5	6.306401E-5	9.851957E-6	3.544983	128.619660	48.294338	137.387626	38.755514	0.375482	8.321250E-5	0.002546
8.961250E-5	1.140377E-5	6.837312E-5	1.016757E-5	3.843434	131.332079	46.873528	139.446199	36.281670	0.356908	8.961250E-5	0.002611
9.601250E-5	1.173115E-5	7.412857E-5	1.048665E-5	4.166979	133.924865	45.414322	141.415452	33.937162	0.339103	9.601250E-5	0.002686
0.000102	1.208804E-5	8.036904E-5	1.080898E-5	4.517748	136.397819	43.924763	143.296021	31.718462	0.322034	0.000102	0.002768
0.000115	1.248434E-5	8.713543E-5	1.113427E-5	4.898056	138.751295	42.412713	145.088800	29.621712	0.305674	0.000115	0.002858
0.000128	1.292469E-5	9.446982E-5	1.146215E-5	5.310392	140.986192	40.885887	146.794967	27.642960	0.289999	0.000128	0.002959
0.000141	1.339229E-5	0.000102	1.179240E-5	5.757434	143.103834	39.351817	148.415878	25.778129	0.274988	0.000141	0.003066
0.000154	1.379007E-5	0.000111	1.212471E-5	6.242029	145.107149	37.817591	149.954176	24.023307	0.260618	0.000154	0.003157
0.000166	1.415913E-5	0.000120	1.245874E-5	6.767511	146.998428	36.289744	151.411635	22.373312	0.246872	0.000166	0.003242
0.000179	1.445163E-5	0.000131	1.279413E-5	7.337193	148.781012	34.774875	152.790973	20.824172	0.233732	0.000179	0.003309
0.000192	1.475412E-5	0.000142	1.313053E-5	7.954841	150.458911	33.278823	154.095308	19.371261	0.221182	0.000192	0.003378
0.000205	1.508790E-5	0.000153	1.346769E-5	8.624631	152.035089	31.807362	155.326677	18.009661	0.209211	0.000205	0.003454
0.000230	1.548506E-5	0.000166	1.380521E-5	9.350517	153.515087	30.365861	156.489513	16.735921	0.197804	0.000230	0.003545
0.000256	1.590439E-5	0.000180	1.414275E-5	10.137777	154.902601	28.958830	157.586261	15.544460	0.186949	0.000256	0.003641
0.000282	1.631818E-5	0.000196	1.447985E-5	10.991090	156.203142	27.590955	158.621191	14.431797	0.176635	0.000282	0.003736
0.000307	1.664844E-5	0.000212	1.481635E-5	11.916432	157.421203	26.266101	159.597441	13.393056	0.166852	0.000307	0.003812
0.000333	1.696043E-5	0.000230	1.515177E-5	12.919509	158.562277	24.988082	160.519157	12.424556	0.157592	0.000333	0.003883
0.000358	1.722456E-5	0.000249	1.548572E-5	14.007128	159.631537	23.760036	161.390108	11.521998	0.148843	0.000358	0.003944
0.000384	1.749899E-5	0.000270	1.581790E-5	15.186352	160.634073	22.585043	162.214024	10.681566	0.140599	0.000384	0.004007
0.000410	1.780884E-5	0.000293	1.614797E-5	16.464655	161.575516	21.465703	162.995164	9.899701	0.132852	0.000410	0.004077
0.000461	1.816869E-5	0.000318	1.647553E-5	17.850703	162.461062	20.404211	163.737377	9.172601	0.125594	0.000461	0.004160
0.000512	1.852226E-5	0.000344	1.680027E-5	19.353386	163.296138	19.402593	164.444791	8.496952	0.118818	0.000512	0.004241
0.000563	1.887897E-5	0.000373	1.712183E-5	20.982698	164.085761	18.462609	165.121182	7.869397	0.112518	0.000563	0.004322
0.000614	1.915169E-5	0.000405	1.743988E-5	22.748852	164.835345	17.585745	165.770774	7.286995	0.106687	0.000614	0.004385
0.000666	1.938947E-5	0.000439	1.775413E-5	24.663778	165.550043	16.773090	166.397576	6.746638	0.101317	0.000666	0.004439
0.000717	1.959317E-5	0.000476	1.806420E-5	26.740144	166.234681	16.025706	167.005367	6.245493	0.096404	0.000717	0.004486
0.000768	1.980877E-5	0.000516	1.836983E-5	28.991109	166.894314	15.344431	167.598221	5.781021	0.091941	0.000768	0.004535
0.000819	2.005295E-5	0.000559	1.867076E-5	31.431856	167.533547	14.729896	168.179842	5.350618	0.087922	0.000819	0.004591
0.000922	2.033959E-5	0.000606	1.896663E-5	34.077877	168.156919	14.182682	168.753957	4.952009	0.084342	0.000922	0.004657
0.001024	2.060834E-5	0.000657	1.925733E-5	36.946045	168.769274	13.703068	169.324664	4.583025	0.081194	0.001024	0.004718
0.001126	2.086133E-5	0.000713	1.954243E-5	40.056585	169.374583	13.291286	169.895285	4.241382	0.078473	0.001126	0.004776
0.001229	2.107676E-5	0.000773	1.982185E-5	43.428225	169.977320	12.947554	170.469729	3.925321	0.076172	0.001229	0.004826
0.001331	2.127339E-5	0.000838	2.009522E-5	47.084353	170.581455	12.671905	171.051483	3.632873	0.074287	0.001331	0.004871
0.001434	2.144554E-5	0.000908	2.036251E-5	51.048578	171.190733	12.464420	171.643902	3.362364	0.072810	0.001434	0.004910
0.001536	2.161418E-5	0.000985	2.062345E-5	55.345755	171.809067	12.325092	172.250583	3.112264	0.071737	0.001536	0.004949
0.001638	2.179302E-5	0.001067	2.087792E-5	60.004923	172.440041	12.253858	172.874882	2.881012	0.071062	0.001638	0.004990
0.001843	2.200330E-5	0.001157	2.112578E-5	65.056324	173.087121	12.250672	173.520115	2.667229	0.070777	0.001843	0.005038
0.002048	2.223742E-5	0.001255	2.136689E-5	70.532788	173.753590	12.315473	174.189497	2.469624	0.070879	0.002048	0.005091
0.002253	2.247343E-5	0.001360	2.160119E-5	76.469378	174.442919	12.448244	174.886508	2.287014	0.071360	0.002253	0.005145
0.002458	2.267343E-5	0.001475	2.182857E-5	82.907223	175.157987	12.648965	175.614113	2.118200	0.072215	0.002458	0.005191
0.002662	2.284926E-5	0.001599	2.204898E-5	89.886118	175.901922	12.917666	176.375600	1.962212	0.073437	0.002662	0.005231
0.002867	2.300119E-5	0.001734	2.226244E-5	97.453015	176.677488	13.254404	177.173965	1.818045	0.075020	0.002867	0.005266
0.003072	2.316903E-5	0.001880	2.246895E-5	105.655797	177.487795	13.659377	178.012628	1.684835	0.076960	0.003072	0.005305
0.003277	2.335954E-5	0.002038	2.266847E-5	114.551956	178.335081	14.132714	178.894200	1.561686	0.079248	0.003277	0.005348
0.003686	2.357963E-5	0.002209	2.286108E-5	124.193623	179.222409	14.674706	179.822187	1.447918	0.081880	0.003686	0.005399
0.004096	2.379919E-5	0.002395	2.304683E-5	134.649482	180.152055	15.285734	180.799382	1.342741	0.084849	0.004096	0.005449
0.004506	2.398751E-5	0.002597	2.322581E-5	145.983993	181.126569	15.966169	181.828910	1.245540	0.088149	0.004506	0.005492
0.004915	2.412909E-5	0.002816	2.339812E-5	158.271896	182.148620	16.716684	182.914098	1.155695	0.091775	0.004915	0.005525
0.005325	2.426884E-5	0.003053	2.356391E-5	171.597043	183.220393	17.537936	184.057849	1.072617	0.095720	0.005325	0.005557
0.005734	2.439998E-5	0.003310	2.372334E-5	186.043519	184.344044	18.430506	185.263083	0.995805	0.099979	0.005734	0.005587
0.006144	2.454416E-5	0.003588	2.387658E-5	201.702292	185.522285	19.395388	186.533373	0.924796	0.104545	0.006144	0.005620
0.006554	2.470406E-5	0.003890	2.402378E-5	218.682027	186.757288	20.433705	187.871821	0.859110	0.109413	0.006554	0.005656
0.007373	2.486649E-5	0.004218	2.416521E-5	237.091692	188.051287	21.546526	189.281640	0.798348	0.114578	0.007373	0.005693
0.008192	2.503081E-5	0.004573	2.430111E-5	257.050721	189.406421	22.735034	190.766019	0.742134	0.120033	0.008192	0.005731
0.009011	2.519178E-5	0.004958	2.443171E-5	278.686676	190.825456	24.000876	192.328876	0.690126	0.125774	0.009011	0.005768
0.009830	2.531620E-5	0.005375	2.455728E-5	302.150145	192.310259	25.345639	193.973290	0.641976	0.131796	0.009830	0.005796
0.010650	2.542324E-5	0.005828	2.467817E-5	327.586662	193.863176	26.770902	195.702867	0.597408	0.138092	0.010650	0.005821
0.011469	2.551025E-5	0.006318	2.479467E-5	355.162820	195.486531	28.278597	197.521297	0.556143	0.144658	0.011469	0.005841
0.012288	2.558623E-5	0.006850	2.490708E-5	385.058289	197.182850	29.870913	199.432564	0.517928	0.151488	0.012288	0.005858
0.013107	2.564522E-5	0.007427	2.501580E-5	417.471517	198.954596	31.550252	201.440685	0.482526	0.158580	0.013107	0.005872
0.014746	2.568118E-5	0.008052	2.512119E-5	452.615744	200.804125	33.319074	203.549644	0.449718	0.165928	0.014746	0.005880
0.016384	2.570898E-5	0.008730	2.522361E-5	490.718498	202.733878	35.179981	205.763594	0.419311	0.173528	0.016384	0.005886
0.018022	2.577865E-5	0.009465	2.532351E-5	532.026775	204.746788	37.136069	208.087325	0.391122	0.181376	0.018022	0.005902
0.019661	2.591712E-5	0.010261	2.542126E-5	576.819210	206.844968	39.190315	210.524872	0.364975	0.189467	0.019661	0.005934
0.021299	2.614202E-5	0.011125	2.551733E-5	625.375662	209.031246	41.345903	213.081077	0.340725	0.197798	0.021299	0.005985
0.022938	2.636928E-5	0.012062	2.561215E-5	678.014450	211.308769	43.606696	215.761303	0.318225	0.206365	0.022938	0.006037
0.024576	2.660011E-5	0.013077	2.570622E-5	735.088001	213.680585	45.976832	218.570953	0.297340	0.215166	0.024576	0.006090
0.026214	2.682747E-5	0.014178	2.579997E-5	796.974145	216.149206	48.460232	221.514951	0.277945	0.224198	0.026214	0.006142
0.029491	2.702295E-5	0.015371	2.589394E-5	864.063659	218.718191	51.061412	224.599454	0.259934	0.233458	0.029491	0.006187
0.032768	2.719528E-5	0.016665	2.598864E-5	936.806788	221.390447	53.785113	227.830131	0.243199	0.242942	0.032768	0.006227
0.036045	2.735278E-5	0.018068	2.608458E-5	1015.669913	224.169425	56.636345	231.213336	0.227646	0.252650	0.036045	0.006263
0.039322	2.750662E-5	0.019589	2.618231E-5	1101.170107	227.058795	59.620688	234.755879	0.213188	0.262578	0.039322	0.006298
0.042598	2.769076E-5	0.021238	2.628241E-5	1193.871994	230.061401	62.743489	238.463820	0.199740	0.272725	0.042598	0.006340
0.045875	2.785519E-5	0.023026	2.638544E-5	1294.354124	233.182743	66.011727	242.346322	0.187233	0.283090	0.045875	0.006378
0.049152	2.801206E-5	0.024965	2.649196E-5	1403.330779	236.424900	69.431473	246.409137	0.175589	0.293672	0.049152	0.006414
0.052429	2.815660E-5	0.027066	2.660264E-5	1521.452882	239.793794	73.010223	250.662236	0.164752	0.304471	0.052429	0.006447
0.058982	2.834423E-5	0.029345	2.671805E-5	1649.554910	243.291538	76.754699	255.111851	0.154655	0.315484	0.058982	0.006490
0.065536	2.863540E-5	0.031815	2.683889E-5	1788.396136	246.924479	80.673289	259.768893	0.145252	0.326712	0.065536	0.006556
0.072090	2.889776E-5	0.034493	2.696581E-5	1938.950341	250.696161	84.774429	264.641774	0.136487	0.338156	0.072090	0.006616
0.078643	2.915667E-5	0.037397	2.709949E-5	2102.162737	254.611920	89.067077	269.740939	0.128316	0.349815	0.078643	0.006676
0.085197	2.946199E-5	0.040545	2.724066E-5	2279.115989	258.677190	93.561282	275.077448	0.120695	0.361691	0.085197	0.006746
0.091750	2.963251E-5	0.043958	2.739004E-5	2470.986114	262.896447	98.266872	280.661576	0.113583	0.373785	0.091750	0.006785
0.098304	2.980941E-5	0.047658	2.754839E-5	2678.992834	267.275700	103.194792	286.505611	0.106945	0.386099	0.098304	0.006825
0.104858	3.006236E-5	0.051671	2.771655E-5	2904.515467	271.820576	108.356734	292.621953	0.100747	0.398633	0.104858	0.006883
0.117965	3.034787E-5	0.056020	2.789531E-5	3149.025162	276.536910	113.764907	299.023606	0.094958	0.411391	0.117965	0.006948
0.131072	3.076099E-5	0.060736	2.808554E-5	3414.111865	281.431401	119.432753	305.725065	0.089547	0.424376	0.131072	0.007043
0.144179	3.126740E-5	0.065849	2.828811E-5	3701.532573	286.509658	125.373769	312.740093	0.084489	0.437590	0.144179	0.007159
0.157286	3.116909E-5	0.071392	2.850402E-5	4013.118758	291.779021	131.602970	320.084893	0.079760	0.451036	0.157286	0.007136
0.170394	3.196341E-5	0.077402	2.873420E-5	4350.931550	297.247271	138.137025	327.777024	0.075335	0.464721	0.170394	0.007318
0.183501	3.413020E-5	0.083918	2.897967E-5	4717.227941	302.921305	144.992850	335.833655	0.071193	0.478649	0.183501	0.007814
0.399815	3.786934E-5	0.090983	2.924157E-5	5114.384852	308.806217	152.186262	344.270152	0.067314	0.492821	0.399815	0.008670
0.599723	4.284903E-5	0.098641	2.952094E-5	5544.822851	314.914501	159.739234	353.111549	0.063683	0.507246	0.599723	0.009811
0.799630	4.757315E-5	0.106946	2.981912E-5	6011.635986	321.251453	167.671508	362.375814	0.060279	0.521932	0.799630	0.010892
0.999538	5.272295E-5	0.115947	3.013717E-5	6517.711969	327.826483	176.004731	372.085834	0.057088	0.536884	0.999538	0.012071
1.199450	5.834187E-5	0.125710	3.047669E-5	7066.392653	334.647331	184.761446	382.263820	0.054096	0.552108	1.199450	0.013358
1.399350	6.199671E-5	0.136292	3.083889E-5	7661.173815	341.725483	193.968138	392.937583	0.051289	0.567614	1.399350	0.014195
1.599260	6.653110E-5	0.147765	3.122534E-5	8306.103211	349.069710	203.651576	404.133180	0.048655	0.583412	1.599260	0.015233
1.799170	7.091890E-5	0.160204	3.163768E-5	9005.357252	356.689860	213.839967	415.878814	0.046181	0.599512	1.799170	0.016237
1.999070	7.606725E-5	0.173688	3.207751E-5	9763.493389	364.595445	224.562967	428.203649	0.043858	0.615924	1.999070	0.017416
2.198980	8.018278E-5	0.188310	3.254679E-5	10585.391530	372.796959	235.852644	441.139482	0.041674	0.632657	2.198980	0.018358
2.398890	8.456263E-5	0.204163	3.304742E-5	11476.387564	381.308511	247.746729	454.724776	0.039623	0.649728	2.398890	0.019361
2.598800	8.890051E-5	0.221349	3.358145E-5	12442.601812	390.138144	260.280541	468.992250	0.037692	0.667150	2.598800	0.020354
2.798700	9.349589E-5	0.239982	3.415113E-5	13490.074997	399.297874	273.493162	483.980683	0.035877	0.684935	2.798700	0.021407
2.998610	9.885931E-5	0.260184	3.475889E-5	14625.630936	408.801737	287.429356	499.734424	0.034168	0.703102	2.998610	0.022634
3.198520	0.000103	0.282089	3.540735E-5	15856.905724	418.659981	302.133610	516.295359	0.032560	0.721668	3.198520	0.023645
3.398430	0.000108	0.305834	3.609912E-5	17191.751386	428.887061	317.656252	533.713037	0.031045	0.740652	3.398430	0.024679
3.598340	0.000112	0.331579	3.683733E-5	18639.071592	439.491655	334.046012	552.032293	0.029617	0.760074	3.598340	0.025710
3.798240	0.000117	0.359492	3.762520E-5	20207.829546	450.494969	351.366608	571.317959	0.028272	0.779957	3.798240	0.026808
3.998150	0.000122	0.389752	3.846612E-5	21909.215824	461.901327	369.671777	591.616479	0.027003	0.800326	3.998150	0.027827
4.198060	0.000126	0.422569	3.936423E-5	23753.342983	473.732729	389.033103	613.000370	0.025807	0.821208	4.198060	0.028828
