MicroRheology Analysis v9.2.8
10/03/18 5:27:37 PM

Correlation Mode:	Cross
Geometry:	Transmission
Multi-Tau Duration (s):	120
Echo Duration (s):	60
Wavelength (nm):	685.0
Temperature (°C):	25.00
Cuvette Thickness (mm):	10.00
Absorption Length (mm):	Inf
Solvent:	Water
Solvent Refractive Index:	1.329
Particle Radius (nm):	300.0
Mean Count Rate (kHz):	113.2
l* (microns):	561.29



Lag Time (s)	Mean Square Displacement (micron^2)	Fit Lag Time (s)	Mean Square Displacement Fit (micron^2)	Frequency(rad/s)	G1 (Pa)	G2 (Pa)	G* (Pa)	Complex Viscosity (Pa s)	Loss Tangent (-)	Time (s)	Creep Compliance (1/Pa)

2.012500E-6	9.916611E-7	2.012505E-6	9.706945E-7	0.080682	1.513650	22.255178	22.306593	276.473923	14.702992	2.012500E-6	0.000227
2.212500E-6	1.124465E-6	2.182309E-6	1.029466E-6	0.087490	2.410874	24.121453	24.241634	277.079952	10.005271	2.212500E-6	0.000257
2.412500E-6	1.207843E-6	2.366465E-6	1.091310E-6	0.094871	3.436292	26.067674	26.293188	277.147062	7.585990	2.412500E-6	0.000277
2.612500E-6	1.241648E-6	2.566093E-6	1.156308E-6	0.102875	4.598183	28.089845	28.463708	276.682415	6.108901	2.612500E-6	0.000284
2.812500E-6	1.160013E-6	2.782621E-6	1.224609E-6	0.111557	5.904055	30.181742	30.753787	275.678393	5.112036	2.812500E-6	0.000266
3.012500E-6	1.110145E-6	3.017411E-6	1.296304E-6	0.120969	7.360966	32.337348	33.164558	274.157332	4.393085	3.012500E-6	0.000254
3.212500E-6	1.244055E-6	3.272007E-6	1.371504E-6	0.131174	8.976017	34.550496	35.697418	272.138037	3.849201	3.212500E-6	0.000285
3.612500E-6	1.418612E-6	3.548044E-6	1.450306E-6	0.142242	10.755352	36.813075	38.352055	269.625289	3.422768	3.612500E-6	0.000325
4.012500E-6	1.559823E-6	3.847451E-6	1.532851E-6	0.154244	12.703923	39.116076	41.127327	266.637400	3.079055	4.012500E-6	0.000357
4.412500E-6	1.662669E-6	4.172038E-6	1.619199E-6	0.167256	14.826697	41.451401	44.023285	263.208331	2.795727	4.412500E-6	0.000381
4.812500E-6	1.717054E-6	4.524035E-6	1.709479E-6	0.181369	17.127372	43.808833	47.037865	259.349148	2.557826	4.812500E-6	0.000393
5.212500E-6	1.801700E-6	4.905706E-6	1.803778E-6	0.196672	19.608555	46.178139	50.168874	255.089054	2.355000	5.212500E-6	0.000413
5.612500E-6	1.963750E-6	5.319675E-6	1.902219E-6	0.213266	22.271748	48.548372	53.413249	250.453570	2.179819	5.612500E-6	0.000450
6.012500E-6	2.137034E-6	5.768468E-6	2.004846E-6	0.231258	25.118225	50.909406	56.768767	245.478092	2.026792	6.012500E-6	0.000489
6.412500E-6	2.228783E-6	6.255217E-6	2.111789E-6	0.250772	28.147261	53.249128	60.230706	240.180883	1.891805	6.412500E-6	0.000510
7.212500E-6	2.383880E-6	6.782957E-6	2.223091E-6	0.271932	31.356908	55.556003	63.794398	234.596861	1.771731	7.212500E-6	0.000546
8.012500E-6	2.541476E-6	7.355222E-6	2.338844E-6	0.294874	34.744713	57.818928	67.455345	228.759681	1.664107	8.012500E-6	0.000582
8.812500E-6	2.763682E-6	7.975846E-6	2.459129E-6	0.319752	38.307268	60.026708	71.208514	222.698856	1.566980	8.812500E-6	0.000633
9.612500E-6	2.863103E-6	8.648790E-6	2.583985E-6	0.346733	42.039063	62.167389	75.047099	216.440403	1.478801	9.612500E-6	0.000656
1.041250E-5	2.986954E-6	9.378532E-6	2.713478E-6	0.375987	45.934014	64.230286	78.964950	210.020177	1.398316	1.041250E-5	0.000684
1.121250E-5	3.042721E-6	1.016982E-5	2.847644E-6	0.407709	49.985357	66.204998	82.955637	203.467959	1.324488	1.121250E-5	0.000697
1.201250E-5	3.185734E-6	1.102785E-5	2.986520E-6	0.442108	54.184640	68.080992	87.011474	196.810307	1.256463	1.201250E-5	0.000729
1.281250E-5	3.316315E-6	1.195840E-5	3.130158E-6	0.479408	58.523199	69.849165	91.125577	190.079373	1.193530	1.281250E-5	0.000759
1.441250E-5	3.529052E-6	1.296725E-5	3.278524E-6	0.519859	62.990458	71.499946	95.289244	183.298289	1.135092	1.441250E-5	0.000808
1.601250E-5	3.671484E-6	1.406142E-5	3.431685E-6	0.563717	67.576123	73.025758	99.495195	176.498328	1.080644	1.601250E-5	0.000841
1.761250E-5	3.801648E-6	1.524779E-5	3.589595E-6	0.611280	72.269409	74.419324	103.735738	169.702487	1.029749	1.761250E-5	0.000870
1.921250E-5	3.915209E-6	1.653416E-5	3.752242E-6	0.662867	77.056312	75.672820	108.000235	162.929065	0.982046	1.921250E-5	0.000896
2.081250E-5	4.056950E-6	1.792937E-5	3.919650E-6	0.718788	81.925446	76.782080	112.282085	156.210357	0.937219	2.081250E-5	0.000929
2.241250E-5	4.227972E-6	1.944224E-5	4.091737E-6	0.779434	86.863361	77.741597	116.571863	149.559605	0.894987	2.241250E-5	0.000968
2.401250E-5	4.463312E-6	2.108259E-5	4.268446E-6	0.845191	91.857501	78.548326	120.862070	142.999648	0.855111	2.401250E-5	0.001022
2.561250E-5	4.734545E-6	2.286112E-5	4.449709E-6	0.916507	96.893977	79.199042	125.143642	136.544139	0.817378	2.561250E-5	0.001084
2.881250E-5	5.001038E-6	2.479019E-5	4.635522E-6	0.993840	101.959063	79.692192	129.408253	130.210390	0.781610	2.881250E-5	0.001145
3.201250E-5	5.257360E-6	2.688195E-5	4.825742E-6	1.077697	107.038625	80.026890	133.647186	124.011794	0.747645	3.201250E-5	0.001204
3.521250E-5	5.462678E-6	2.915008E-5	5.020270E-6	1.168618	112.119912	80.203868	137.853310	117.962665	0.715340	3.521250E-5	0.001251
3.841250E-5	5.644739E-6	3.160899E-5	5.218955E-6	1.267215	117.189572	80.224049	142.018639	112.071472	0.684566	3.841250E-5	0.001292
4.161250E-5	5.843278E-6	3.427631E-5	5.421792E-6	1.374129	122.234872	80.089736	146.135998	106.348130	0.655212	4.161250E-5	0.001338
4.481250E-5	6.063969E-6	3.716852E-5	5.628558E-6	1.490066	127.243862	79.804015	150.198805	100.800087	0.627174	4.481250E-5	0.001388
4.801250E-5	6.287518E-6	4.030389E-5	5.839060E-6	1.615805	132.203741	79.370389	154.199506	95.432023	0.600364	4.801250E-5	0.001440
5.121250E-5	6.522652E-6	4.370456E-5	6.053240E-6	1.752145	137.102888	78.793793	158.131792	90.250421	0.574706	5.121250E-5	0.001493
5.761250E-5	6.802932E-6	4.739225E-5	6.270880E-6	1.899978	141.930345	78.079620	161.989660	85.258722	0.550126	5.761250E-5	0.001558
6.401250E-5	7.111499E-6	5.139102E-5	6.491786E-6	2.060265	146.676817	77.234095	165.768496	80.459805	0.526560	6.401250E-5	0.001628
7.041250E-5	7.390994E-6	5.572691E-5	6.715751E-6	2.234088	151.333516	76.263602	169.463772	75.853664	0.503944	7.041250E-5	0.001692
7.681250E-5	7.676001E-6	6.042921E-5	6.942607E-6	2.422613	155.889774	75.174895	173.069022	71.438990	0.482231	7.681250E-5	0.001757
8.321250E-5	7.922128E-6	6.552795E-5	7.172094E-6	2.626977	160.340575	73.976531	176.583201	67.219171	0.461371	8.321250E-5	0.001814
8.961250E-5	8.110443E-6	7.105606E-5	7.403965E-6	2.848674	164.676544	72.675225	180.000146	63.187341	0.441321	8.961250E-5	0.001857
9.601250E-5	8.348371E-6	7.705076E-5	7.638025E-6	3.089009	168.892885	71.280301	183.318542	59.345427	0.422044	9.601250E-5	0.001911
0.000102	8.608818E-6	8.355276E-5	7.874075E-6	3.349653	172.983680	69.799641	186.535100	55.687885	0.403504	0.000102	0.001971
0.000115	8.875403E-6	9.060143E-5	8.111743E-6	3.632259	176.944945	68.242221	189.648397	52.212241	0.385669	0.000115	0.002032
0.000128	9.210143E-6	9.824659E-5	8.350889E-6	3.938717	180.773132	66.616604	192.656942	48.913634	0.368509	0.000128	0.002109
0.000141	9.512691E-6	0.000107	8.591177E-6	4.271032	184.465866	64.931573	195.560131	45.787555	0.351998	0.000141	0.002178
0.000154	9.770599E-6	0.000116	8.832316E-6	4.631425	188.019951	63.195853	198.356290	42.828351	0.336112	0.000154	0.002237
0.000166	1.001601E-5	0.000125	9.074125E-6	5.022117	191.435782	61.418507	201.046988	40.032321	0.320831	0.000166	0.002293
0.000179	1.022073E-5	0.000136	9.316213E-6	5.445855	194.712422	59.607510	203.631978	37.392107	0.306131	0.000179	0.002340
0.000192	1.043713E-5	0.000147	9.558370E-6	5.905341	197.850589	57.771473	206.112588	34.902740	0.291995	0.000192	0.002390
0.000205	1.069752E-5	0.000160	9.800318E-6	6.403665	200.850499	55.918514	208.489336	32.557816	0.278409	0.000205	0.002449
0.000230	1.097471E-5	0.000173	1.004181E-5	6.943962	203.713559	54.056954	210.763774	30.352094	0.265358	0.000230	0.002513
0.000256	1.127601E-5	0.000188	1.028243E-5	7.529718	206.443801	52.194198	212.939609	28.279892	0.252825	0.000256	0.002582
0.000282	1.156678E-5	0.000204	1.052204E-5	8.165155	209.042102	50.337229	215.017295	26.333522	0.240799	0.000282	0.002648
0.000307	1.180895E-5	0.000221	1.076033E-5	8.853992	211.512848	48.493700	217.000746	24.508804	0.229271	0.000307	0.002704
0.000333	1.202716E-5	0.000239	1.099697E-5	9.601039	213.859789	46.669779	218.892845	22.798871	0.218226	0.000333	0.002754
0.000358	1.220773E-5	0.000260	1.123176E-5	10.411199	216.086138	44.872074	220.695995	21.197942	0.207658	0.000358	0.002795
0.000384	1.239236E-5	0.000282	1.146438E-5	11.289456	218.197547	43.106682	222.414827	19.701112	0.197558	0.000384	0.002837
0.000410	1.259333E-5	0.000305	1.169467E-5	12.241982	220.198941	41.378677	224.053048	18.302024	0.187915	0.000410	0.002883
0.000461	1.283116E-5	0.000331	1.192231E-5	13.275087	222.094524	39.693573	225.613735	16.995274	0.178724	0.000461	0.002938
0.000512	1.308687E-5	0.000359	1.214707E-5	14.395096	223.890056	38.056561	227.101429	15.776306	0.169979	0.000512	0.002996
0.000563	1.333210E-5	0.000389	1.236880E-5	15.609520	225.591406	36.471883	228.520635	14.639825	0.161672	0.000563	0.003052
0.000614	1.353583E-5	0.000422	1.258720E-5	16.926487	227.204538	34.943517	229.875948	13.580842	0.153798	0.000614	0.003099
0.000666	1.372209E-5	0.000458	1.280207E-5	18.354827	228.734534	33.475465	231.171136	12.594569	0.146351	0.000666	0.003142
0.000717	1.387909E-5	0.000496	1.301326E-5	19.903254	230.188271	32.071298	232.411722	11.677071	0.139326	0.000717	0.003178
0.000768	1.403405E-5	0.000538	1.322058E-5	21.582728	231.571269	30.733964	233.601860	10.823556	0.132719	0.000768	0.003213
0.000819	1.420163E-5	0.000584	1.342383E-5	23.403755	232.889525	29.466631	234.746274	10.030282	0.126526	0.000819	0.003252
0.000922	1.438252E-5	0.000633	1.362292E-5	25.378121	234.149861	28.271697	235.850474	9.293457	0.120742	0.000922	0.003293
0.001024	1.458150E-5	0.000686	1.381769E-5	27.519767	235.357415	27.151516	236.918377	8.609026	0.115363	0.001024	0.003339
0.001126	1.477619E-5	0.000744	1.400797E-5	29.841324	236.518898	26.108386	237.955535	7.974027	0.110386	0.001126	0.003383
0.001229	1.494361E-5	0.000807	1.419374E-5	32.359039	237.640196	25.143943	238.966694	7.384851	0.105807	0.001229	0.003421
0.001331	1.508731E-5	0.000875	1.437483E-5	35.089250	238.727380	24.259891	239.956880	6.838473	0.101622	0.001331	0.003454
0.001434	1.520482E-5	0.000949	1.455118E-5	38.050196	239.785999	23.457776	240.930680	6.331917	0.097828	0.001434	0.003481
0.001536	1.531626E-5	0.001029	1.472278E-5	41.260530	240.822082	22.738976	241.893233	5.862582	0.094422	0.001536	0.003507
0.001638	1.544210E-5	0.001116	1.488957E-5	44.741957	241.841081	22.104637	242.849178	5.427773	0.091401	0.001638	0.003536
0.001843	1.559054E-5	0.001210	1.505146E-5	48.516614	242.848966	21.555810	243.803759	5.025160	0.088762	0.001843	0.003570
0.002048	1.575736E-5	0.001312	1.520851E-5	52.610656	243.850609	21.093450	244.761217	4.652313	0.086502	0.002048	0.003608
0.002253	1.592249E-5	0.001423	1.536069E-5	57.048733	244.852038	20.718469	245.727034	4.307318	0.084616	0.002253	0.003646
0.002458	1.606476E-5	0.001543	1.550807E-5	61.862819	245.857869	20.431606	246.705375	3.987943	0.083103	0.002458	0.003678
0.002662	1.619230E-5	0.001673	1.565060E-5	67.081848	246.873548	20.233701	247.701335	3.692524	0.081960	0.002662	0.003707
0.002867	1.629146E-5	0.001814	1.578844E-5	72.741723	247.903928	20.125439	248.719502	3.419214	0.081182	0.002867	0.003730
0.003072	1.639329E-5	0.001968	1.592156E-5	78.879006	248.954078	20.107573	249.764784	3.166429	0.080768	0.003072	0.003753
0.003277	1.651524E-5	0.002134	1.605009E-5	85.535407	250.028346	20.180815	250.841462	2.932604	0.080714	0.003277	0.003781
0.003686	1.664660E-5	0.002314	1.617412E-5	92.752151	251.131529	20.345923	251.954364	2.716426	0.081017	0.003686	0.003811
0.004096	1.679088E-5	0.002509	1.629380E-5	100.577727	252.268060	20.603662	253.108050	2.516542	0.081674	0.004096	0.003844
0.004506	1.694002E-5	0.002720	1.640919E-5	109.062905	253.442452	20.954879	254.307262	2.331748	0.082681	0.004506	0.003879
0.004915	1.706388E-5	0.002950	1.652049E-5	118.264268	254.659082	21.400517	255.556706	2.160895	0.084036	0.004915	0.003907
0.005325	1.716688E-5	0.003199	1.662783E-5	128.243023	255.922180	21.941607	256.861045	2.002924	0.085735	0.005325	0.003930
0.005734	1.724258E-5	0.003469	1.673138E-5	139.065184	257.235379	22.579105	258.224430	1.856859	0.087776	0.005734	0.003948
0.006144	1.732119E-5	0.003761	1.683131E-5	150.797030	258.603076	23.314186	259.651887	1.721863	0.090154	0.006144	0.003966
0.006554	1.741303E-5	0.004079	1.692784E-5	163.518981	260.029368	24.148297	261.148257	1.597052	0.092868	0.006554	0.003987
0.007373	1.754693E-5	0.004423	1.702115E-5	177.316123	261.518002	25.082889	262.718131	1.481637	0.095913	0.007373	0.004017
0.008192	1.768774E-5	0.004796	1.711147E-5	192.277592	263.072768	26.119501	264.366241	1.374920	0.099286	0.008192	0.004050
0.009011	1.781870E-5	0.005201	1.719902E-5	208.501061	264.697411	27.259851	266.097386	1.276240	0.102985	0.009011	0.004080
0.009830	1.791732E-5	0.005640	1.728404E-5	226.092397	266.395792	28.505898	267.916600	1.184987	0.107006	0.009830	0.004102
0.010650	1.802284E-5	0.006115	1.736677E-5	245.168418	268.171726	29.859852	269.828992	1.100586	0.111346	0.010650	0.004126
0.011469	1.810354E-5	0.006631	1.744747E-5	265.855784	270.028667	31.323953	271.839421	1.022507	0.116002	0.011469	0.004145
0.012288	1.817727E-5	0.007191	1.752641E-5	288.287096	271.970371	32.900664	273.953164	0.950279	0.120972	0.012288	0.004162
0.013107	1.821909E-5	0.007798	1.760389E-5	312.610451	274.000619	34.592818	276.175673	0.883450	0.126251	0.013107	0.004171
0.014746	1.824425E-5	0.008456	1.768017E-5	338.987015	276.123010	36.403404	278.512341	0.821602	0.131838	0.014746	0.004177
0.016384	1.826233E-5	0.009169	1.775554E-5	367.588694	278.341077	38.335530	280.968625	0.764356	0.137729	0.016384	0.004181
0.018022	1.831020E-5	0.009943	1.783030E-5	398.600371	280.659129	40.392958	283.550944	0.711366	0.143922	0.018022	0.004192
0.019661	1.839040E-5	0.010781	1.790478E-5	432.235141	283.080180	42.579321	286.264540	0.662289	0.150414	0.019661	0.004211
0.021299	1.852671E-5	0.011691	1.797930E-5	468.701682	285.608364	44.898556	289.115925	0.616844	0.157203	0.021299	0.004242
0.022938	1.868046E-5	0.012678	1.805419E-5	508.244263	288.247646	47.355265	292.111668	0.574747	0.164287	0.022938	0.004277
0.024576	1.886591E-5	0.013747	1.812976E-5	551.124392	291.002393	49.954512	295.258948	0.535739	0.171664	0.024576	0.004319
0.026214	1.905540E-5	0.014907	1.820638E-5	597.632613	293.875208	52.700751	298.563237	0.499577	0.179330	0.026214	0.004363
0.029491	1.923210E-5	0.016165	1.828438E-5	648.047866	296.871981	55.599897	302.033643	0.466067	0.187286	0.029491	0.004403
0.032768	1.935320E-5	0.017529	1.836416E-5	702.735621	299.995318	58.657658	305.676154	0.434980	0.195529	0.032768	0.004431
0.036045	1.943730E-5	0.019008	1.844604E-5	762.025356	303.250155	61.879990	309.499256	0.406153	0.204056	0.036045	0.004450
0.039322	1.949759E-5	0.020611	1.853045E-5	826.318070	306.640510	65.273611	313.510840	0.379407	0.212867	0.039322	0.004464
0.042598	1.961336E-5	0.022350	1.861775E-5	896.027910	310.171954	68.846176	317.720690	0.354588	0.221961	0.042598	0.004491
0.045875	1.976424E-5	0.024236	1.870835E-5	971.636259	313.848226	72.605226	322.136970	0.331541	0.231339	0.045875	0.004525
0.049152	1.994659E-5	0.026281	1.880267E-5	1053.621377	317.673659	76.558194	326.768589	0.310139	0.240996	0.049152	0.004567
0.052429	2.009700E-5	0.028499	1.890113E-5	1142.508565	321.653948	80.713995	331.626313	0.290262	0.250934	0.052429	0.004601
0.058982	2.026542E-5	0.030903	1.900416E-5	1238.897995	325.794947	85.082704	336.721567	0.271791	0.261154	0.058982	0.004640
0.065536	2.047316E-5	0.033511	1.911220E-5	1343.444455	330.099847	89.673123	342.063120	0.254616	0.271655	0.065536	0.004687
0.072090	2.066228E-5	0.036338	1.922572E-5	1456.780915	334.576284	94.496259	347.664828	0.238653	0.282436	0.072090	0.004731
0.078643	2.084409E-5	0.039404	1.934524E-5	1579.705673	339.228506	99.563218	353.537570	0.223800	0.293499	0.078643	0.004772
0.085197	2.105786E-5	0.042728	1.947118E-5	1712.991541	344.062434	104.885303	359.694155	0.209980	0.304844	0.085197	0.004821
0.091750	2.118260E-5	0.046333	1.960412E-5	1857.510372	349.084938	110.475642	366.149097	0.197118	0.316472	0.091750	0.004850
0.098304	2.134216E-5	0.050243	1.974459E-5	2014.233532	354.302142	116.347860	372.916656	0.185141	0.328386	0.098304	0.004886
0.104858	2.156844E-5	0.054482	1.989308E-5	2184.186639	359.719748	122.515525	380.010989	0.173983	0.340586	0.104858	0.004938
0.117965	2.182245E-5	0.059079	2.005027E-5	2368.455481	365.346173	128.994562	387.449897	0.163588	0.353075	0.117965	0.004996
0.131072	2.216274E-5	0.064063	2.021667E-5	2568.299242	371.188158	135.801526	395.250177	0.153896	0.365856	0.131072	0.005074
0.144179	2.258094E-5	0.069468	2.039295E-5	2785.025274	377.251236	142.952067	403.427551	0.144856	0.378931	0.144179	0.005170
0.157286	2.258647E-5	0.075329	2.057977E-5	3019.986508	383.545056	150.465043	412.003082	0.136425	0.392301	0.157286	0.005171
0.170394	2.320648E-5	0.081686	2.077789E-5	3274.786744	390.077804	158.360768	420.997418	0.128557	0.405972	0.170394	0.005313
0.183501	2.475230E-5	0.088578	2.098793E-5	3551.114492	396.855381	166.658087	430.428986	0.121210	0.419947	0.183501	0.005667
0.399814	2.737026E-5	0.096050	2.121066E-5	3850.683787	403.889825	175.380497	440.324096	0.114350	0.434229	0.399814	0.006267
0.599721	3.083611E-5	0.104155	2.144700E-5	4175.584487	411.188104	184.550983	450.704695	0.107938	0.448824	0.599721	0.007060
0.799629	3.415874E-5	0.112943	2.169771E-5	4527.875659	418.761631	194.195207	461.598400	0.101946	0.463737	0.799629	0.007821
0.999536	3.779120E-5	0.122472	2.196369E-5	4909.947873	426.618362	204.338757	473.030184	0.096341	0.478973	0.999536	0.008653
1.199440	4.176474E-5	0.132807	2.224602E-5	5324.231669	434.767694	215.008167	485.027277	0.091098	0.494536	1.199440	0.009562
1.399350	4.473747E-5	0.144010	2.254551E-5	5773.383422	443.225352	226.237144	497.626324	0.086193	0.510434	1.399350	0.010243
1.599260	4.780624E-5	0.156161	2.286342E-5	6260.594335	451.997099	238.054888	510.853704	0.081598	0.526673	1.599260	0.010946
1.799160	5.130808E-5	0.169338	2.320089E-5	6788.817598	461.096477	250.494743	524.745250	0.077296	0.543259	1.799160	0.011747
1.999070	5.467107E-5	0.183626	2.355905E-5	7361.571525	470.535663	263.593190	539.337723	0.073264	0.560198	1.999070	0.012517
2.198980	5.754246E-5	0.199119	2.393926E-5	7982.614030	480.330667	277.391711	554.674419	0.069485	0.577502	2.198980	0.013175
2.398890	6.113844E-5	0.215916	2.434283E-5	8656.214438	490.489115	291.927274	570.789896	0.065940	0.595176	2.398890	0.013998
2.598790	6.417706E-5	0.234135	2.477145E-5	9386.475813	501.030351	307.246282	587.734371	0.062615	0.613229	2.598790	0.014694
2.798700	6.759445E-5	0.253890	2.522659E-5	10178.470766	511.967426	323.395791	605.553865	0.059494	0.631673	2.798700	0.015476
2.998610	7.092367E-5	0.275311	2.570999E-5	11037.353186	523.311838	340.421169	624.293082	0.056562	0.650513	2.998610	0.016238
3.198510	7.340319E-5	0.298538	2.622350E-5	11968.485522	535.087011	358.381028	644.014806	0.053809	0.669762	3.198510	0.016806
3.398420	7.645132E-5	0.323728	2.676918E-5	12978.457643	547.301617	377.326457	664.766362	0.051221	0.689431	3.398420	0.017504
3.598330	8.024377E-5	0.351040	2.734906E-5	14073.395671	559.976942	397.318281	686.611966	0.048788	0.709526	3.598330	0.018372
3.798240	8.287087E-5	0.380666	2.796568E-5	15260.663486	573.133755	418.424418	709.620529	0.046500	0.730064	3.798240	0.018974
3.998140	8.594966E-5	0.412777	2.862111E-5	16548.287650	586.789730	440.713008	733.859757	0.044347	0.751058	3.998140	0.019679
4.198050	8.900182E-5	0.447610	2.931853E-5	17944.653206	600.962022	464.253266	759.398740	0.042319	0.772517	4.198050	0.020378
4.397960	9.240732E-5	0.485375	3.006049E-5	19458.653580	615.675421	489.125859	786.320755	0.040410	0.794454	4.397960	0.021157
4.597860	9.535187E-5	0.526322	3.085022E-5	21100.498176	630.950777	515.414026	814.708844	0.038611	0.816885	4.597860	0.021831
4.797770	9.785999E-5	0.570729	3.169130E-5	22880.909260	646.810634	543.205542	844.651560	0.036915	0.839822	4.797770	0.022406
