MicroRheology Analysis v9.2.8
10/03/18 5:26:50 PM

Correlation Mode:	Cross
Geometry:	Transmission
Multi-Tau Duration (s):	120
Echo Duration (s):	60
Wavelength (nm):	685.0
Temperature (°C):	19.99
Cuvette Thickness (mm):	10.00
Absorption Length (mm):	Inf
Solvent:	Water
Solvent Refractive Index:	1.329
Particle Radius (nm):	300.0
Mean Count Rate (kHz):	109.4
l* (microns):	683.98



Lag Time (s)	Mean Square Displacement (micron^2)	Fit Lag Time (s)	Mean Square Displacement Fit (micron^2)	Frequency(rad/s)	G1 (Pa)	G2 (Pa)	G* (Pa)	Complex Viscosity (Pa s)	Loss Tangent (-)	Time (s)	Creep Compliance (1/Pa)

2.612500E-6	1.578554E-6	2.612512E-6	1.422598E-6	0.079401	-0.655816	16.508546	16.521567	208.076937	-25.172537	2.612500E-6	0.000368
2.812500E-6	1.446865E-6	2.831745E-6	1.511294E-6	0.086063	0.191489	18.118163	18.119175	210.532963	94.617069	2.812500E-6	0.000337
3.012500E-6	1.416598E-6	3.069287E-6	1.604914E-6	0.093284	1.177574	19.767917	19.802960	212.286358	16.786985	3.012500E-6	0.000330
3.212500E-6	1.487657E-6	3.326827E-6	1.703704E-6	0.101111	2.306352	21.447693	21.571342	213.343170	9.299402	3.212500E-6	0.000346
3.612500E-6	1.797650E-6	3.605989E-6	1.807833E-6	0.109595	3.580156	23.146268	23.421512	213.709124	6.465157	3.612500E-6	0.000419
4.012500E-6	1.960811E-6	3.908498E-6	1.917457E-6	0.118789	5.000478	24.853727	25.351775	213.418953	4.970270	4.012500E-6	0.000457
4.412500E-6	2.102408E-6	4.236413E-6	2.032795E-6	0.128757	6.567245	26.558327	27.358243	212.480156	4.044059	4.412500E-6	0.000490
4.812500E-6	2.267204E-6	4.591885E-6	2.154035E-6	0.139559	8.278995	28.249429	29.437594	210.932225	3.412181	4.812500E-6	0.000528
5.212500E-6	2.455655E-6	4.977185E-6	2.281341E-6	0.151269	10.133174	29.916213	31.585772	208.805613	2.952304	5.212500E-6	0.000572
5.612500E-6	2.604607E-6	5.394782E-6	2.414875E-6	0.163960	12.126172	31.548553	33.798746	206.140321	2.601691	5.612500E-6	0.000607
6.012500E-6	2.822493E-6	5.847365E-6	2.554800E-6	0.177717	14.253095	33.136317	36.071682	202.972511	2.324851	6.012500E-6	0.000657
6.412500E-6	2.878006E-6	6.338008E-6	2.701314E-6	0.192628	16.507915	34.670085	38.399558	199.345390	2.100210	6.412500E-6	0.000670
7.212500E-6	3.035627E-6	6.869811E-6	2.854545E-6	0.208789	18.884049	36.141443	40.777582	195.304958	1.913861	7.212500E-6	0.000707
8.012500E-6	3.231244E-6	7.446115E-6	3.014604E-6	0.226307	21.374151	37.542483	43.200606	190.893449	1.756443	8.012500E-6	0.000752
8.812500E-6	3.471794E-6	8.070972E-6	3.181711E-6	0.245298	23.969208	38.865310	45.662186	186.149890	1.621468	8.812500E-6	0.000808
9.612500E-6	3.596386E-6	8.748058E-6	3.355887E-6	0.265875	26.660949	40.104560	48.157885	181.129507	1.504244	9.612500E-6	0.000837
1.041250E-5	3.783644E-6	9.482116E-6	3.537333E-6	0.288183	29.440342	41.254498	50.682021	175.867570	1.401291	1.041250E-5	0.000881
1.121250E-5	3.924049E-6	1.027755E-5	3.726057E-6	0.312365	32.297231	42.310208	53.228421	170.404756	1.310026	1.121250E-5	0.000914
1.201250E-5	4.133631E-6	1.113993E-5	3.922245E-6	0.338572	35.222010	43.268435	55.792001	164.786269	1.228449	1.201250E-5	0.000963
1.281250E-5	4.354791E-6	1.207465E-5	4.125913E-6	0.366980	38.204642	44.126152	58.367045	159.047035	1.154995	1.281250E-5	0.001014
1.441250E-5	4.581302E-6	1.308759E-5	4.337081E-6	0.397770	41.235054	44.881468	60.948141	153.224489	1.088430	1.441250E-5	0.001067
1.601250E-5	4.769196E-6	1.418587E-5	4.555902E-6	0.431143	44.303752	45.533497	63.530480	147.353680	1.027757	1.601250E-5	0.001111
1.761250E-5	5.000753E-6	1.537604E-5	4.782278E-6	0.467321	47.400034	46.081270	66.107841	141.461433	0.972178	1.761250E-5	0.001165
1.921250E-5	5.264302E-6	1.666610E-5	5.016269E-6	0.506522	50.515397	46.526114	68.676667	135.584769	0.921028	1.921250E-5	0.001226
2.081250E-5	5.476607E-6	1.806433E-5	5.257848E-6	0.549022	53.640655	46.868601	71.231914	129.743239	0.873751	2.081250E-5	0.001275
2.241250E-5	5.718618E-6	1.958008E-5	5.507027E-6	0.595093	56.766058	47.110226	73.768278	123.960845	0.829901	2.241250E-5	0.001332
2.401250E-5	5.978629E-6	2.122277E-5	5.763687E-6	0.645020	59.883402	47.253723	76.281952	118.263013	0.789095	2.401250E-5	0.001392
2.561250E-5	6.302199E-6	2.300331E-5	6.027798E-6	0.699132	62.985157	47.301925	78.769297	112.667310	0.751001	2.561250E-5	0.001468
2.881250E-5	6.722359E-6	2.493371E-5	6.299332E-6	0.757789	66.063742	47.257955	81.226426	107.188674	0.715339	2.881250E-5	0.001565
3.201250E-5	7.148762E-6	2.702542E-5	6.578029E-6	0.821370	69.112473	47.125630	83.650218	101.842291	0.681869	3.201250E-5	0.001665
3.521250E-5	7.488788E-6	2.929279E-5	6.863866E-6	0.890297	72.123782	46.908584	86.036360	96.637799	0.650390	3.521250E-5	0.001744
3.841250E-5	7.773580E-6	3.175098E-5	7.156744E-6	0.964986	75.092680	46.611781	88.383079	91.590057	0.620723	3.841250E-5	0.001810
4.161250E-5	8.044430E-6	3.441457E-5	7.456329E-6	1.045952	78.013627	46.239327	90.687383	86.703182	0.592708	4.161250E-5	0.001873
4.481250E-5	8.320042E-6	3.730240E-5	7.762609E-6	1.133712	80.881603	45.796053	92.946824	81.984495	0.566211	4.481250E-5	0.001937
4.801250E-5	8.656278E-6	4.043163E-5	8.075206E-6	1.228830	83.692409	45.286888	95.159453	77.439039	0.541111	4.801250E-5	0.002016
5.121250E-5	9.027031E-6	4.382422E-5	8.394060E-6	1.331928	86.442828	44.716812	97.323973	73.070007	0.517299	5.121250E-5	0.002102
5.761250E-5	9.425201E-6	4.750127E-5	8.718832E-6	1.443697	89.128854	44.090552	99.438068	68.877369	0.494683	5.761250E-5	0.002195
6.401250E-5	9.882519E-6	5.148651E-5	9.049252E-6	1.564827	91.747997	43.413445	101.500848	64.863954	0.473181	6.401250E-5	0.002301
7.041250E-5	1.031596E-5	5.580625E-5	9.385076E-6	1.696118	94.298072	42.690355	103.511317	61.028355	0.452717	7.041250E-5	0.002402
7.681250E-5	1.072958E-5	6.048886E-5	9.726029E-6	1.838425	96.777181	41.926202	105.468617	57.368995	0.433224	7.681250E-5	0.002499
8.321250E-5	1.112286E-5	6.556330E-5	1.007170E-5	1.992664	99.184423	41.125887	107.372661	53.883985	0.414641	8.321250E-5	0.002590
8.961250E-5	1.143053E-5	7.106463E-5	1.042191E-5	2.159868	101.517881	40.293972	109.222179	50.568909	0.396915	8.961250E-5	0.002662
9.601250E-5	1.176131E-5	7.702745E-5	1.077623E-5	2.341044	103.778122	39.435441	111.018253	47.422547	0.379998	9.601250E-5	0.002739
0.000102	1.217325E-5	8.349003E-5	1.113431E-5	2.537467	105.964657	38.554322	112.760561	44.438238	0.363841	0.000102	0.002835
0.000115	1.258971E-5	9.049465E-5	1.149578E-5	2.750381	108.077605	37.655084	114.449439	41.612206	0.348408	0.000115	0.002932
0.000128	1.310690E-5	9.808796E-5	1.186035E-5	2.981175	110.116890	36.741900	116.084869	38.939296	0.333663	0.000128	0.003052
0.000141	1.363409E-5	0.000106	1.222754E-5	3.231281	112.083683	35.818915	117.667951	36.415258	0.319573	0.000141	0.003175
0.000154	1.407788E-5	0.000115	1.259705E-5	3.502377	113.978947	34.889751	119.199393	34.033860	0.306107	0.000154	0.003278
0.000166	1.446998E-5	0.000125	1.296844E-5	3.796209	115.804382	33.957998	120.680572	31.789762	0.293236	0.000166	0.003370
0.000179	1.480428E-5	0.000135	1.334130E-5	4.114766	117.560721	33.026980	122.111852	29.676497	0.280936	0.000179	0.003447
0.000192	1.514343E-5	0.000147	1.371533E-5	4.459987	119.250176	32.100140	123.495034	27.689549	0.269183	0.000192	0.003526
0.000205	1.555881E-5	0.000159	1.408998E-5	4.834230	120.873915	31.180376	124.830762	25.822261	0.257958	0.000205	0.003623
0.000230	1.603231E-5	0.000172	1.446499E-5	5.239767	122.434567	30.270711	126.121129	24.069988	0.247240	0.000230	0.003733
0.000256	1.653295E-5	0.000187	1.483988E-5	5.679394	123.934027	29.373589	127.367385	22.426229	0.237010	0.000256	0.003850
0.000282	1.699863E-5	0.000203	1.521425E-5	6.155905	125.374806	28.491556	128.571423	20.885869	0.227251	0.000282	0.003958
0.000307	1.738135E-5	0.000220	1.558779E-5	6.672498	126.758497	27.626953	129.734210	19.443123	0.217950	0.000307	0.004048
0.000333	1.772932E-5	0.000238	1.596009E-5	7.232263	128.088219	26.782094	130.858215	18.093676	0.209091	0.000333	0.004129
0.000358	1.803015E-5	0.000258	1.633070E-5	7.839107	129.366037	25.958777	131.944798	16.831611	0.200661	0.000358	0.004199
0.000384	1.834095E-5	0.000280	1.669936E-5	8.496783	130.594700	25.158982	132.996053	15.652519	0.192649	0.000384	0.004271
0.000410	1.869334E-5	0.000303	1.706573E-5	9.209660	131.776833	24.384322	134.013913	14.551450	0.185043	0.000410	0.004353
0.000461	1.909918E-5	0.000328	1.742925E-5	9.982393	132.915090	23.636354	135.000364	13.523847	0.177830	0.000461	0.004448
0.000512	1.953533E-5	0.000356	1.778988E-5	10.820033	134.011844	22.916571	135.957138	12.565316	0.171004	0.000512	0.004549
0.000563	1.995133E-5	0.000386	1.814707E-5	11.727821	135.069859	22.226376	136.886371	11.671936	0.164555	0.000563	0.004646
0.000614	2.028771E-5	0.000418	1.850061E-5	12.711702	136.092048	21.566894	137.790335	10.839645	0.158473	0.000614	0.004724
0.000666	2.058295E-5	0.000453	1.885019E-5	13.778273	137.081057	20.939168	138.671068	10.064474	0.152750	0.000666	0.004793
0.000717	2.082506E-5	0.000491	1.919548E-5	14.934463	138.039218	20.344305	139.530342	9.342843	0.147381	0.000717	0.004850
0.000768	2.109194E-5	0.000533	1.953639E-5	16.187388	138.969532	19.783287	140.370614	8.671604	0.142357	0.000768	0.004912
0.000819	2.141190E-5	0.000577	1.987246E-5	17.545572	139.874456	19.256896	141.193808	8.047262	0.137673	0.000819	0.004986
0.000922	2.176647E-5	0.000626	2.020363E-5	19.017559	140.756752	18.765962	142.002199	7.466899	0.133322	0.000922	0.005069
0.001024	2.212520E-5	0.000678	2.052961E-5	20.613087	141.619077	18.311166	142.797975	6.927540	0.129299	0.001024	0.005152
0.001126	2.246195E-5	0.000735	2.085018E-5	22.342597	142.464036	17.893179	143.583311	6.426438	0.125598	0.001126	0.005231
0.001229	2.273652E-5	0.000797	2.116530E-5	24.217377	143.293933	17.512670	144.360122	5.961014	0.122215	0.001229	0.005295
0.001331	2.300081E-5	0.000864	2.147466E-5	26.249020	144.111796	17.170233	145.131067	5.529009	0.119145	0.001331	0.005356
0.001434	2.323884E-5	0.000936	2.177826E-5	28.451856	144.919581	16.866386	145.897773	5.127882	0.116384	0.001434	0.005412
0.001536	2.347251E-5	0.001015	2.207590E-5	30.838782	145.720165	16.601750	146.662826	4.755792	0.113929	0.001536	0.005466
0.001638	2.371045E-5	0.001100	2.236759E-5	33.426326	146.515813	16.376779	147.428228	4.410542	0.111775	0.001638	0.005521
0.001843	2.396001E-5	0.001192	2.265314E-5	36.230717	147.309070	16.192014	148.196300	4.090350	0.109919	0.001843	0.005580
0.002048	2.422583E-5	0.001292	2.293255E-5	39.270534	148.102327	16.047947	148.969244	3.793410	0.108357	0.002048	0.005641
0.002253	2.449259E-5	0.001401	2.320577E-5	42.565510	148.897974	15.945096	149.749300	3.518090	0.107087	0.002253	0.005704
0.002458	2.472647E-5	0.001518	2.347277E-5	46.137144	149.698254	15.883983	150.538593	3.262850	0.106107	0.002458	0.005758
0.002662	2.495381E-5	0.001645	2.373365E-5	50.008147	150.505434	15.865146	151.339316	3.026293	0.105412	0.002662	0.005811
0.002867	2.514364E-5	0.001783	2.398837E-5	54.203305	151.322132	15.889160	152.154044	2.807099	0.105002	0.002867	0.005855
0.003072	2.533987E-5	0.001933	2.423693E-5	58.751563	152.150340	15.956583	152.984765	2.603927	0.104874	0.003072	0.005901
0.003277	2.555871E-5	0.002095	2.447941E-5	63.680947	152.992335	16.068041	153.833795	2.415696	0.105025	0.003277	0.005952
0.003686	2.579676E-5	0.002271	2.471595E-5	69.023507	153.850531	16.224213	154.703623	2.241318	0.105454	0.003686	0.006007
0.004096	2.604688E-5	0.002462	2.494662E-5	74.815147	154.726997	16.425790	155.596434	2.079745	0.106160	0.004096	0.006066
0.004506	2.628790E-5	0.002668	2.517147E-5	81.092485	155.623902	16.673512	156.514552	1.930075	0.107140	0.004506	0.006122
0.004915	2.647822E-5	0.002892	2.539071E-5	87.895947	156.543606	16.968215	157.460538	1.791443	0.108393	0.004915	0.006166
0.005325	2.666857E-5	0.003135	2.560447E-5	95.271083	157.488141	17.310761	158.436666	1.663009	0.109918	0.005325	0.006210
0.005734	2.682950E-5	0.003398	2.581285E-5	103.264540	158.459581	17.702039	159.445292	1.544047	0.111713	0.005734	0.006248
0.006144	2.698206E-5	0.003683	2.601611E-5	111.927115	159.460569	18.143173	160.489401	1.433874	0.113778	0.006144	0.006283
0.006554	2.718592E-5	0.003992	2.621439E-5	121.319743	160.492833	18.635224	161.571102	1.331779	0.116113	0.006554	0.006331
0.007373	2.742320E-5	0.004327	2.640790E-5	131.499135	161.558486	19.179263	162.692927	1.237217	0.118714	0.007373	0.006386
0.008192	2.767855E-5	0.004690	2.659686E-5	142.530451	162.660189	19.776707	163.858034	1.149635	0.121583	0.008192	0.006445
0.009011	2.794223E-5	0.005083	2.678152E-5	154.490974	163.799463	20.428807	165.068472	1.068467	0.124718	0.009011	0.006507
0.009830	2.815093E-5	0.005510	2.696212E-5	167.450415	164.979149	21.137112	166.327680	0.993295	0.128120	0.009830	0.006555
0.010650	2.831788E-5	0.005972	2.713893E-5	181.500937	166.201066	21.903237	167.638141	0.923621	0.131788	0.010650	0.006594
0.011469	2.845214E-5	0.006473	2.731216E-5	196.728973	167.467541	22.728823	169.002889	0.859065	0.135721	0.011469	0.006626
0.012288	2.856710E-5	0.007016	2.748220E-5	213.234679	168.780797	23.615727	170.424940	0.799237	0.139920	0.012288	0.006652
0.013107	2.867632E-5	0.007605	2.764924E-5	231.124985	170.143150	24.565933	171.907465	0.743786	0.144384	0.013107	0.006678
0.014746	2.878198E-5	0.008243	2.781366E-5	250.516798	171.556924	25.581586	173.453728	0.692384	0.149114	0.014746	0.006702
0.016384	2.888446E-5	0.008934	2.797578E-5	271.536706	173.024408	26.664950	175.067030	0.644727	0.154111	0.016384	0.006726
0.018022	2.902400E-5	0.009684	2.813585E-5	294.320827	174.547736	27.818329	176.750591	0.600537	0.159374	0.018022	0.006759
0.019661	2.918991E-5	0.010496	2.829428E-5	319.013128	176.129754	29.044463	178.508463	0.559565	0.164904	0.019661	0.006797
0.021299	2.939763E-5	0.011377	2.845142E-5	345.782092	177.772490	30.346085	180.343958	0.521554	0.170702	0.021299	0.006846
0.022938	2.962111E-5	0.012332	2.860759E-5	374.794415	179.478383	31.725992	182.260880	0.486296	0.176768	0.022938	0.006898
0.024576	2.987307E-5	0.013366	2.876321E-5	406.237149	181.250494	33.187612	184.263830	0.453587	0.183104	0.024576	0.006957
0.026214	3.016114E-5	0.014488	2.891864E-5	440.325523	183.090822	34.734222	186.356420	0.423224	0.189710	0.026214	0.007024
0.029491	3.047507E-5	0.015703	2.907426E-5	477.269516	185.002018	36.369218	188.543010	0.395045	0.196588	0.029491	0.007097
0.032768	3.074293E-5	0.017021	2.923050E-5	517.308367	186.987095	38.096618	190.828525	0.368887	0.203739	0.032768	0.007159
0.036045	3.094001E-5	0.018449	2.938779E-5	560.709221	189.048972	39.920740	193.217958	0.344596	0.211166	0.036045	0.007205
0.039322	3.107071E-5	0.019997	2.954650E-5	607.758810	191.190158	41.845856	195.715999	0.322029	0.218870	0.039322	0.007235
0.042598	3.123540E-5	0.021675	2.970713E-5	658.756076	193.413077	43.876222	198.327359	0.301063	0.226852	0.042598	0.007274
0.045875	3.142909E-5	0.023493	2.987014E-5	714.019224	195.721408	46.017011	201.058287	0.281587	0.235115	0.045875	0.007319
0.049152	3.166538E-5	0.025464	3.003597E-5	773.924651	198.118056	48.273686	203.914475	0.263481	0.243661	0.049152	0.007374
0.052429	3.188630E-5	0.027601	3.020510E-5	838.859239	200.605967	50.651711	206.901788	0.246647	0.252494	0.052429	0.007425
0.058982	3.214216E-5	0.029917	3.037804E-5	909.239470	203.188917	53.157335	210.027233	0.230992	0.261615	0.058982	0.007485
0.065536	3.244984E-5	0.032427	3.055532E-5	985.539646	205.869162	55.796482	213.296412	0.216426	0.271029	0.065536	0.007557
0.072090	3.275342E-5	0.035147	3.073742E-5	1068.224338	208.650987	58.576055	216.717301	0.202876	0.280737	0.072090	0.007627
0.078643	3.306645E-5	0.038097	3.092499E-5	1157.855997	211.536979	61.502976	220.296413	0.190262	0.290743	0.078643	0.007700
0.085197	3.346017E-5	0.041293	3.111846E-5	1254.987791	214.532139	64.585456	224.043121	0.178522	0.301053	0.085197	0.007792
0.091750	3.377020E-5	0.044758	3.131855E-5	1360.296505	217.638621	67.831134	227.964102	0.167584	0.311669	0.091750	0.007864
0.098304	3.410123E-5	0.048513	3.152579E-5	1474.414604	220.861520	71.248908	232.069425	0.157398	0.322595	0.098304	0.007941
0.104858	3.448774E-5	0.052583	3.174082E-5	1598.124905	224.204309	74.848135	236.367966	0.147903	0.333839	0.104858	0.008031
0.117965	3.487087E-5	0.056994	3.196432E-5	1732.217944	227.670450	78.638003	240.868780	0.139052	0.345403	0.117965	0.008120
0.131072	3.532784E-5	0.061776	3.219700E-5	1877.537902	231.265874	82.629888	245.584207	0.130801	0.357294	0.131072	0.008227
0.144179	3.583242E-5	0.066959	3.243954E-5	2035.099048	234.992269	86.833644	250.522351	0.123101	0.369517	0.144179	0.008344
0.157286	3.585337E-5	0.072578	3.269276E-5	2205.818126	238.856346	91.261617	255.697158	0.115919	0.382077	0.157286	0.008349
0.170394	3.654175E-5	0.078668	3.295737E-5	2390.889685	242.861994	95.926637	261.120408	0.109215	0.394984	0.170394	0.008509
0.183501	3.851446E-5	0.085267	3.323420E-5	2591.493947	247.013786	100.841657	266.804892	0.102954	0.408243	0.183501	0.008969
0.399814	4.184269E-5	0.092421	3.352414E-5	2808.922091	251.317801	106.021660	272.765887	0.097107	0.421863	0.399814	0.009744
0.599721	4.619297E-5	0.100176	3.382816E-5	3044.645409	255.776096	111.479816	279.014625	0.091641	0.435849	0.599721	0.010757
0.799628	5.017804E-5	0.108582	3.414714E-5	3300.043268	260.398167	117.234331	285.571521	0.086536	0.450212	0.799628	0.011685
0.999535	5.441036E-5	0.117692	3.448209E-5	3576.983019	265.185956	123.301164	292.449599	0.081759	0.464961	0.999535	0.012671
1.199440	5.890887E-5	0.127566	3.483410E-5	3877.101621	270.145747	129.697730	299.666858	0.077291	0.480103	1.199440	0.013718
1.399350	6.248607E-5	0.138269	3.520435E-5	4202.359474	275.284985	136.444927	307.244269	0.073112	0.495650	1.399350	0.014551
1.599260	6.595268E-5	0.149869	3.559392E-5	4554.971640	280.607950	143.562673	315.200036	0.069199	0.511613	1.599260	0.015358
1.799160	6.970732E-5	0.162446	3.600430E-5	4937.139988	286.120998	151.072413	323.555404	0.065535	0.528002	1.799160	0.016233
1.999070	7.335794E-5	0.176075	3.643662E-5	5351.341109	291.831239	158.998164	332.334001	0.062103	0.544829	1.999070	0.017083
2.198980	7.685746E-5	0.190848	3.689243E-5	5800.311939	297.745715	167.365601	341.560763	0.058887	0.562109	2.198980	0.017898
2.398880	8.042693E-5	0.206858	3.737316E-5	6287.011238	303.869253	176.199661	351.258941	0.055871	0.579854	2.398880	0.018729
2.598790	8.408662E-5	0.224216	3.788068E-5	6814.460217	310.211905	185.530641	361.459603	0.053043	0.598077	2.598790	0.019581
2.798700	8.782073E-5	0.243027	3.841653E-5	7386.288203	316.777379	195.386461	372.187825	0.050389	0.616794	2.798700	0.020451
2.998600	9.132155E-5	0.263421	3.898279E-5	8005.961982	323.576259	205.800804	383.478247	0.047899	0.636019	2.998600	0.021266
3.198510	9.498456E-5	0.285520	3.958123E-5	8677.703829	330.615229	216.808029	395.363315	0.045561	0.655771	3.198510	0.022119
3.398420	9.842027E-5	0.309475	4.021416E-5	9405.820410	337.901347	228.443280	407.877007	0.043364	0.676065	3.398420	0.022919
3.598320	0.000102	0.335438	4.088388E-5	10194.931186	345.445610	240.747791	421.060766	0.041301	0.696920	3.598320	0.023689
3.798230	0.000106	0.363586	4.159308E-5	11050.376546	353.253851	253.761265	434.951794	0.039361	0.718354	3.798230	0.024733
3.998140	0.000110	0.394094	4.234427E-5	11977.478729	361.336963	267.528975	449.595544	0.037537	0.740386	3.998140	0.025638
4.198050	0.000113	0.427160	4.314038E-5	12982.384561	369.704826	282.099652	465.039645	0.035821	0.763040	4.198050	0.026249
4.397950	0.000118	0.462991	4.398441E-5	14071.697241	378.366545	297.523622	481.333095	0.034206	0.786337	4.397950	0.027433
4.597860	0.000121	0.501841	4.488024E-5	15252.436437	387.329889	313.851809	498.525226	0.032685	0.810296	4.597860	0.028278
4.797770	0.000124	0.543944	4.583119E-5	16531.969956	396.610734	331.147092	516.680241	0.031253	0.834942	4.797770	0.028952
4.997670	0.000127	0.589581	4.684148E-5	17919.140203	406.215915	349.468475	535.854071	0.029904	0.860302	4.997670	0.029656
5.197580	0.000132	0.639048	4.791544E-5	19422.561727	416.158521	368.882054	556.113194	0.028632	0.886398	5.197580	0.030729
5.397490	0.000134	0.692666	4.905784E-5	21052.069302	426.452133	389.460646	577.530100	0.027433	0.913258	5.397490	0.031269
5.597390	0.000138	0.750791	5.027408E-5	22818.434262	437.109143	411.280073	600.179724	0.026302	0.940909	5.597390	0.032163
