MicroRheology Analysis v9.2.8
10/03/18 5:29:29 PM

Correlation Mode:	Cross
Geometry:	Transmission
Multi-Tau Duration (s):	120
Echo Duration (s):	60
Wavelength (nm):	685.0
Temperature (°C):	35.01
Cuvette Thickness (mm):	10.00
Absorption Length (mm):	Inf
Solvent:	Water
Solvent Refractive Index:	1.329
Particle Radius (nm):	300.0
Mean Count Rate (kHz):	117.2
l* (microns):	556.82



Lag Time (s)	Mean Square Displacement (micron^2)	Fit Lag Time (s)	Mean Square Displacement Fit (micron^2)	Frequency(rad/s)	G1 (Pa)	G2 (Pa)	G* (Pa)	Complex Viscosity (Pa s)	Loss Tangent (-)	Time (s)	Creep Compliance (1/Pa)

1.012500E-6	1.038520E-6	1.012502E-6	7.694500E-7	0.138952	0.096901	12.337035	12.337415	88.789254	127.316037	1.012500E-6	0.000230
1.112500E-6	9.978963E-7	1.108027E-6	8.128698E-7	0.152060	0.327217	13.539788	13.543742	89.068198	41.378648	1.112500E-6	0.000221
1.212500E-6	9.506609E-7	1.212562E-6	8.591868E-7	0.166406	0.614297	14.842558	14.855265	89.271394	24.161841	1.212500E-6	0.000211
1.312500E-6	8.968367E-7	1.326971E-6	9.085623E-7	0.182105	0.966584	16.249863	16.278585	89.391154	16.811648	1.312500E-6	0.000199
1.412500E-6	8.012542E-7	1.452150E-6	9.611420E-7	0.199286	1.393198	17.765652	17.820196	89.420190	12.751710	1.412500E-6	0.000177
1.512500E-6	7.416638E-7	1.589132E-6	1.017097E-6	0.218086	1.904041	19.393850	19.487093	89.355151	10.185626	1.512500E-6	0.000164
1.612500E-6	8.143417E-7	1.739052E-6	1.076606E-6	0.238661	2.509620	21.137040	21.285504	89.187017	8.422408	1.612500E-6	0.000180
1.812500E-6	9.083021E-7	1.903118E-6	1.139836E-6	0.261175	3.221168	22.997879	23.222368	88.914934	7.139609	1.812500E-6	0.000201
2.012500E-6	1.118012E-6	2.082676E-6	1.206968E-6	0.285816	4.050478	24.977545	25.303836	88.531960	6.166567	2.012500E-6	0.000248
2.212500E-6	1.306482E-6	2.279172E-6	1.278174E-6	0.312782	5.009711	27.076135	27.535691	88.034729	5.404730	2.212500E-6	0.000289
2.412500E-6	1.370442E-6	2.494155E-6	1.353618E-6	0.342290	6.111486	29.292948	29.923687	87.422028	4.793098	2.412500E-6	0.000304
2.612500E-6	1.411094E-6	2.729479E-6	1.433519E-6	0.374581	7.368690	31.625891	32.472982	86.691597	4.291928	2.612500E-6	0.000313
2.812500E-6	1.392541E-6	2.986998E-6	1.518036E-6	0.409915	8.794734	34.072522	35.189262	85.845303	3.874196	2.812500E-6	0.000308
3.012500E-6	1.387242E-6	3.268753E-6	1.607333E-6	0.448595	10.402086	36.626340	38.074824	84.875752	3.521057	3.012500E-6	0.000307
3.212500E-6	1.545434E-6	3.577185E-6	1.701637E-6	0.490907	12.203984	39.282763	41.134811	83.793407	3.218847	3.212500E-6	0.000342
3.612500E-6	1.784408E-6	3.914635E-6	1.801070E-6	0.537223	14.212890	42.033268	44.371183	82.593547	2.957405	3.612500E-6	0.000395
4.012500E-6	1.943941E-6	4.283983E-6	1.905844E-6	0.587908	16.440407	44.868258	47.785433	81.280427	2.729145	4.012500E-6	0.000431
4.412500E-6	2.040230E-6	4.688074E-6	2.016082E-6	0.643369	18.898089	47.777699	51.379435	79.859978	2.528176	4.412500E-6	0.000452
4.812500E-6	2.120702E-6	5.130392E-6	2.131994E-6	0.704074	21.595462	50.747797	55.151636	78.332147	2.349929	4.812500E-6	0.000470
5.212500E-6	2.204376E-6	5.614387E-6	2.253694E-6	0.770491	24.541902	53.765847	59.102211	76.707162	2.190778	5.212500E-6	0.000488
5.612500E-6	2.291249E-6	6.144012E-6	2.381326E-6	0.843186	27.744478	56.815396	63.227725	74.986678	2.047809	5.612500E-6	0.000508
6.012500E-6	2.456875E-6	6.723751E-6	2.515060E-6	0.922727	31.209283	59.880485	67.525490	73.180365	1.918675	6.012500E-6	0.000544
6.412500E-6	2.564642E-6	7.358027E-6	2.654948E-6	1.009775	34.940757	62.943437	71.991200	71.294286	1.801433	6.412500E-6	0.000568
7.212500E-6	2.680496E-6	8.052107E-6	2.801118E-6	1.105046	38.940220	65.984409	76.617772	69.334447	1.694505	7.212500E-6	0.000594
8.012500E-6	2.833739E-6	8.811864E-6	2.953703E-6	1.209286	43.208458	68.985086	81.399710	67.312217	1.596564	8.012500E-6	0.000628
8.812500E-6	3.039591E-6	9.643171E-6	3.112709E-6	1.323377	47.742833	71.924341	86.327799	65.232969	1.506495	8.812500E-6	0.000673
9.612500E-6	3.193909E-6	1.055288E-5	3.278205E-6	1.448222	52.539206	74.782372	91.393497	63.107386	1.423363	9.612500E-6	0.000708
1.041250E-5	3.387690E-6	1.154857E-5	3.450256E-6	1.584858	57.590597	77.538228	96.585991	60.943011	1.346370	1.041250E-5	0.000750
1.121250E-5	3.529687E-6	1.263802E-5	3.628812E-6	1.734386	62.886649	80.170792	101.892524	58.748472	1.274846	1.121250E-5	0.000782
1.201250E-5	3.661270E-6	1.383033E-5	3.813900E-6	1.897982	68.417355	82.661863	107.302927	56.535262	1.208200	1.201250E-5	0.000811
1.281250E-5	3.763585E-6	1.513505E-5	4.005459E-6	2.077050	74.168711	84.991382	112.803071	54.309284	1.145920	1.281250E-5	0.000834
1.441250E-5	3.911880E-6	1.656289E-5	4.203440E-6	2.273022	80.123276	87.140530	118.377410	52.079302	1.087581	1.441250E-5	0.000867
1.601250E-5	4.111533E-6	1.812543E-5	4.407749E-6	2.487440	86.263961	89.093593	124.012658	49.855537	1.032802	1.601250E-5	0.000911
1.761250E-5	4.333232E-6	1.983529E-5	4.618256E-6	2.722103	92.571351	90.834999	129.693686	47.644662	0.981243	1.761250E-5	0.000960
1.921250E-5	4.513992E-6	2.170672E-5	4.834860E-6	2.978935	99.022230	92.350156	135.402929	45.453471	0.932620	1.921250E-5	0.001000
2.081250E-5	4.682730E-6	2.375455E-5	5.057338E-6	3.259939	105.595196	93.628775	141.126514	43.291150	0.886676	2.081250E-5	0.001037
2.241250E-5	4.859793E-6	2.599543E-5	5.285494E-6	3.567508	112.265408	94.660142	146.847078	41.162367	0.843182	2.241250E-5	0.001077
2.401250E-5	5.052732E-6	2.844812E-5	5.519149E-6	3.904086	119.006922	95.436847	152.547826	39.073892	0.801944	2.401250E-5	0.001119
2.561250E-5	5.316219E-6	3.113195E-5	5.757987E-6	4.272366	125.795392	95.954477	158.214229	37.031994	0.762782	2.561250E-5	0.001178
2.881250E-5	5.603110E-6	3.406901E-5	6.001744E-6	4.675438	132.604318	96.209497	163.829706	35.040506	0.725538	2.881250E-5	0.001241
3.201250E-5	5.853315E-6	3.728325E-5	6.250116E-6	5.116524	139.408071	96.201829	169.379462	33.104398	0.690074	3.201250E-5	0.001297
3.521250E-5	6.092497E-6	4.080044E-5	6.502735E-6	5.599252	146.180676	95.933093	174.848358	31.227094	0.656264	3.521250E-5	0.001350
3.841250E-5	6.309897E-6	4.464946E-5	6.759260E-6	6.127512	152.896469	95.407493	180.221863	29.411917	0.624001	3.841250E-5	0.001398
4.161250E-5	6.523240E-6	4.886210E-5	7.019331E-6	6.705541	159.532645	94.631921	185.488181	27.661928	0.593182	4.161250E-5	0.001445
4.481250E-5	6.756827E-6	5.347127E-5	7.282460E-6	7.338184	166.064882	93.614110	190.633540	25.978299	0.563720	4.481250E-5	0.001497
4.801250E-5	7.008434E-6	5.851623E-5	7.548317E-6	8.030417	172.472381	92.365175	195.647764	24.363340	0.535536	4.801250E-5	0.001553
5.121250E-5	7.270496E-6	6.403627E-5	7.816363E-6	8.787994	178.735697	90.896968	200.521091	22.817618	0.508555	5.121250E-5	0.001611
5.761250E-5	7.552940E-6	7.007815E-5	8.086224E-6	9.617160	184.835166	89.222961	205.243210	21.341354	0.482716	5.761250E-5	0.001673
6.401250E-5	7.854754E-6	7.668905E-5	8.357336E-6	10.524455	190.754556	87.358867	209.806749	19.935165	0.457965	6.401250E-5	0.001740
7.041250E-5	8.117598E-6	8.392398E-5	8.629264E-6	11.517308	196.479570	85.320900	214.205222	18.598549	0.434248	7.041250E-5	0.001798
7.681250E-5	8.372449E-6	9.184185E-5	8.901514E-6	12.603797	201.998223	83.126333	218.433672	17.330783	0.411520	7.681250E-5	0.001855
8.321250E-5	8.610165E-6	0.000101	9.173566E-6	13.792832	207.300182	80.793056	222.487939	16.130693	0.389739	8.321250E-5	0.001907
8.961250E-5	8.810950E-6	0.000110	9.444898E-6	15.094056	212.378190	78.339614	226.366055	14.997033	0.368868	8.961250E-5	0.001952
9.601250E-5	9.024667E-6	0.000120	9.715051E-6	16.518306	217.224116	75.784722	230.064427	13.927846	0.348878	9.601250E-5	0.001999
0.000102	9.284712E-6	0.000132	9.983505E-6	18.076454	221.836066	73.148102	233.584856	12.922051	0.329739	0.000102	0.002057
0.000115	9.548206E-6	0.000144	1.024972E-5	19.781855	226.211518	70.447862	236.927314	11.977002	0.311425	0.000115	0.002115
0.000128	9.842065E-6	0.000158	1.051335E-5	21.648021	230.351457	67.702923	240.094730	11.090840	0.293911	0.000128	0.002180
0.000141	1.012841E-5	0.000173	1.077379E-5	23.690535	234.256772	64.931353	243.089111	10.261023	0.277180	0.000141	0.002244
0.000154	1.037076E-5	0.000189	1.103061E-5	25.925375	237.932174	62.151201	245.915618	9.485518	0.261214	0.000154	0.002297
0.000166	1.060509E-5	0.000207	1.128345E-5	28.371255	241.383095	59.379028	248.579298	8.761660	0.245995	0.000166	0.002349
0.000179	1.081524E-5	0.000226	1.153182E-5	31.048088	244.615624	56.631325	251.085465	8.086987	0.231511	0.000179	0.002396
0.000192	1.102309E-5	0.000248	1.177538E-5	33.977010	247.638725	53.923662	253.441708	7.459212	0.217751	0.000192	0.002442
0.000205	1.123635E-5	0.000271	1.201371E-5	37.182486	250.461200	51.270338	255.654963	6.875682	0.204704	0.000205	0.002489
0.000230	1.147806E-5	0.000296	1.224652E-5	40.689928	253.094527	48.684862	257.734467	6.334110	0.192358	0.000230	0.002543
0.000256	1.173581E-5	0.000324	1.247347E-5	44.529209	255.548523	46.179767	259.687540	5.831847	0.180708	0.000256	0.002600
0.000282	1.198503E-5	0.000355	1.269433E-5	48.729504	257.836701	43.766867	261.524957	5.366871	0.169746	0.000282	0.002655
0.000307	1.218620E-5	0.000389	1.290881E-5	53.327408	259.970223	41.456519	263.254933	4.936578	0.159466	0.000307	0.002699
0.000333	1.236516E-5	0.000425	1.311678E-5	58.357649	261.963548	39.258605	264.888918	4.539061	0.149863	0.000333	0.002739
0.000358	1.251227E-5	0.000465	1.331793E-5	63.864197	263.828810	37.181606	266.435945	4.171914	0.140931	0.000358	0.002772
0.000384	1.268131E-5	0.000509	1.351227E-5	69.888810	265.580137	35.233810	267.907131	3.833334	0.132667	0.000384	0.002809
0.000410	1.286516E-5	0.000557	1.369965E-5	76.481814	267.231298	33.421901	269.313183	3.521271	0.125067	0.000410	0.002850
0.000461	1.307181E-5	0.000610	1.387998E-5	83.697094	268.795820	31.752152	270.664723	3.233860	0.118127	0.000461	0.002896
0.000512	1.329025E-5	0.000667	1.405326E-5	91.592656	270.287541	30.230088	271.972816	2.969374	0.111844	0.000512	0.002944
0.000563	1.350634E-5	0.000730	1.421952E-5	100.233655	271.720092	28.860440	273.248483	2.726115	0.106214	0.000563	0.002992
0.000614	1.367478E-5	0.000799	1.437879E-5	109.691463	273.105942	27.647714	274.501825	2.502490	0.101234	0.000614	0.003029
0.000666	1.382185E-5	0.000875	1.453119E-5	120.038080	274.458929	26.595729	275.744513	2.297142	0.096902	0.000666	0.003062
0.000717	1.392928E-5	0.000957	1.467681E-5	131.362939	275.791583	25.707557	276.987140	2.108564	0.093214	0.000717	0.003086
0.000768	1.403878E-5	0.001048	1.481586E-5	143.757516	277.115695	24.986372	278.239873	1.935481	0.090166	0.000768	0.003110
0.000819	1.417249E-5	0.001146	1.494847E-5	157.317538	278.444120	24.434828	279.514202	1.776752	0.087755	0.000819	0.003139
0.000922	1.433124E-5	0.001254	1.507490E-5	172.161905	279.787511	24.055298	280.819708	1.631137	0.085977	0.000922	0.003175
0.001024	1.449583E-5	0.001373	1.519540E-5	188.401544	281.157869	23.850177	282.167642	1.497693	0.084828	0.001024	0.003211
0.001126	1.466280E-5	0.001502	1.531026E-5	206.178353	282.565179	23.821575	283.567537	1.375351	0.084305	0.001126	0.003248
0.001229	1.480305E-5	0.001644	1.541983E-5	225.626832	284.020363	23.971721	285.030191	1.263281	0.084401	0.001229	0.003279
0.001331	1.493357E-5	0.001799	1.552440E-5	246.913054	285.533068	24.302780	286.565452	1.160593	0.085114	0.001331	0.003308
0.001434	1.504257E-5	0.001969	1.562437E-5	270.205795	287.113110	24.817089	288.183667	1.066534	0.086437	0.001434	0.003332
0.001536	1.514878E-5	0.002155	1.572016E-5	295.699157	288.769435	25.517091	289.894651	0.980370	0.088365	0.001536	0.003356
0.001638	1.525998E-5	0.002358	1.581214E-5	323.596873	290.510665	26.405320	291.708223	0.901456	0.090893	0.001638	0.003380
0.001843	1.539273E-5	0.002580	1.590080E-5	354.121931	292.345728	27.484758	293.634869	0.829191	0.094015	0.001843	0.003410
0.002048	1.553822E-5	0.002824	1.598658E-5	387.532246	294.282432	28.758614	295.684304	0.762993	0.097725	0.002048	0.003442
0.002253	1.568499E-5	0.003090	1.606995E-5	424.092989	296.328523	30.230255	297.866517	0.702361	0.102016	0.002253	0.003475
0.002458	1.581437E-5	0.003382	1.615145E-5	464.099095	298.492119	31.903817	300.192269	0.646828	0.106883	0.002458	0.003503
0.002662	1.593400E-5	0.003701	1.623158E-5	507.889264	300.779679	33.783434	302.671002	0.595939	0.112320	0.002662	0.003530
0.002867	1.602990E-5	0.004050	1.631087E-5	555.798888	303.198959	35.873868	305.313843	0.549324	0.118318	0.002867	0.003551
0.003072	1.612991E-5	0.004432	1.638988E-5	608.233281	305.757012	38.180826	308.131670	0.506601	0.124873	0.003072	0.003573
0.003277	1.624114E-5	0.004850	1.646918E-5	665.623707	308.459626	40.709684	311.134407	0.467433	0.131977	0.003277	0.003598
0.003686	1.636645E-5	0.005308	1.654938E-5	728.410742	311.314408	43.466986	314.334280	0.431534	0.139624	0.003686	0.003625
0.004096	1.650884E-5	0.005808	1.663103E-5	797.131015	314.327472	46.460063	317.742501	0.398608	0.147808	0.004096	0.003657
0.004506	1.664503E-5	0.006357	1.671480E-5	872.332700	317.505258	49.696455	321.371010	0.368404	0.156522	0.004506	0.003687
0.004915	1.675754E-5	0.006956	1.680128E-5	954.626429	320.854834	53.185065	325.232956	0.340691	0.165761	0.004915	0.003712
0.005325	1.685266E-5	0.007612	1.689115E-5	1044.702260	324.381530	56.934785	329.340169	0.315248	0.175518	0.005325	0.003733
0.005734	1.692783E-5	0.008331	1.698506E-5	1143.260954	328.092255	60.955390	333.706589	0.291890	0.185787	0.005734	0.003750
0.006144	1.701111E-5	0.009116	1.708368E-5	1251.117318	331.993213	65.257810	338.346088	0.270435	0.196564	0.006144	0.003768
0.006554	1.712265E-5	0.009977	1.718777E-5	1369.139546	336.091547	69.854093	343.274121	0.250723	0.207842	0.006554	0.003793
0.007373	1.726385E-5	0.010918	1.729799E-5	1498.306861	340.393380	74.756914	348.505738	0.232600	0.219619	0.007373	0.003824
0.008192	1.742317E-5	0.011948	1.741511E-5	1639.652490	344.905746	79.979890	354.057561	0.215935	0.231889	0.008192	0.003860
0.009011	1.756920E-5	0.013075	1.753991E-5	1794.332401	349.636427	85.538545	359.947876	0.200603	0.244650	0.009011	0.003892
0.009830	1.767762E-5	0.014308	1.767319E-5	1963.636981	354.591289	91.448338	366.193638	0.186487	0.257898	0.009830	0.003916
0.010650	1.776597E-5	0.015658	1.781576E-5	2148.897517	359.777085	97.725178	372.813306	0.173491	0.271627	0.010650	0.003936
0.011469	1.783602E-5	0.017136	1.796854E-5	2351.586211	365.204735	104.389493	379.831101	0.161521	0.285838	0.011469	0.003951
0.012288	1.791585E-5	0.018752	1.813234E-5	2573.481232	370.878804	111.460201	387.265365	0.150483	0.300530	0.012288	0.003969
0.013107	1.797920E-5	0.020521	1.830820E-5	2816.259471	376.809399	118.958123	395.140935	0.140307	0.315698	0.013107	0.003983
0.014746	1.802987E-5	0.022457	1.849699E-5	3081.956604	383.004158	126.905924	403.481472	0.130917	0.331343	0.014746	0.003994
0.016384	1.810267E-5	0.024576	1.869986E-5	3372.691108	389.473633	135.328555	412.314842	0.122251	0.347465	0.016384	0.004010
0.018022	1.821940E-5	0.026894	1.891780E-5	3690.888574	396.225871	144.251534	421.667458	0.114246	0.364064	0.018022	0.004036
0.019661	1.840104E-5	0.029432	1.915203E-5	4039.070197	403.272608	153.703325	431.570978	0.106849	0.381140	0.019661	0.004076
0.021299	1.864680E-5	0.032208	1.940373E-5	4420.140304	410.623043	163.713348	442.055815	0.100009	0.398695	0.021299	0.004131
0.022938	1.887107E-5	0.035247	1.967424E-5	4837.133609	418.289872	174.314046	453.157592	0.093683	0.416730	0.022938	0.004180
0.024576	1.908864E-5	0.038572	1.996487E-5	5293.509209	426.282308	185.537860	464.909565	0.087826	0.435246	0.024576	0.004229
0.026214	1.929641E-5	0.042211	2.027710E-5	5792.833674	434.616108	197.422594	477.354000	0.082404	0.454246	0.026214	0.004275
0.029491	1.948683E-5	0.046194	2.061255E-5	6339.318476	443.305387	210.009384	490.534002	0.077380	0.473735	0.029491	0.004317
0.032768	1.968948E-5	0.050551	2.097280E-5	6937.482385	452.359021	223.335529	504.487306	0.072719	0.493713	0.032768	0.004362
0.036045	1.988515E-5	0.055321	2.135973E-5	7591.857189	461.798398	237.448400	519.268238	0.068398	0.514182	0.036045	0.004405
0.039322	2.009856E-5	0.060539	2.177517E-5	8308.092920	471.637186	252.395990	534.925575	0.064386	0.535149	0.039322	0.004452
0.042598	2.036130E-5	0.066251	2.222139E-5	9091.901519	481.892327	268.227751	551.512775	0.060660	0.556613	0.042598	0.004510
0.045875	2.059197E-5	0.072501	2.270044E-5	9949.594115	492.584614	284.999707	569.090885	0.057197	0.578580	0.045875	0.004562
0.049152	2.084583E-5	0.079341	2.321480E-5	10888.282953	503.733014	302.769947	587.721525	0.053977	0.601052	0.049152	0.004618
0.052429	2.113184E-5	0.086826	2.376707E-5	11915.545965	515.358502	321.599545	607.470702	0.050981	0.624031	0.052429	0.004681
0.058982	2.146800E-5	0.095017	2.436014E-5	13039.670685	527.484465	341.554563	628.410200	0.048192	0.647516	0.058982	0.004756
0.065536	2.192156E-5	0.103981	2.499708E-5	14269.783526	540.139079	362.709216	650.621396	0.045594	0.671511	0.065536	0.004856
0.072090	2.237344E-5	0.113792	2.568131E-5	15616.150071	553.343965	385.134893	674.179820	0.043172	0.696014	0.072090	0.004956
0.078643	2.278259E-5	0.124527	2.641630E-5	17089.275527	567.134901	408.917002	699.181744	0.040913	0.721022	0.078643	0.005047
0.085197	2.323985E-5	0.136273	2.720605E-5	18701.630234	581.536884	434.137055	725.713532	0.038805	0.746534	0.085197	0.005148
0.091750	2.357657E-5	0.149130	2.805505E-5	20465.760397	596.592529	460.893525	753.886920	0.036836	0.772543	0.091750	0.005223
0.098304	2.397017E-5	0.163198	2.896779E-5	22396.686362	612.332584	489.280405	783.802595	0.034996	0.799044	0.098304	0.005310
0.104858	2.450219E-5	0.178595	2.994965E-5	24509.537007	628.801351	519.403768	815.580415	0.033276	0.826022	0.104858	0.005428
0.117965	2.510440E-5	0.195445	3.100619E-5	26821.698655	646.045115	551.378725	849.348449	0.031666	0.853468	0.117965	0.005561
0.131072	2.586780E-5	0.213884	3.214349E-5	29352.191579	664.110310	585.322679	885.237337	0.030159	0.881364	0.131072	0.005730
0.144179	2.676774E-5	0.234062	3.336842E-5	32121.338359	683.051578	621.363206	923.391408	0.028747	0.909687	0.144179	0.005930
0.157286	2.665222E-5	0.256142	3.468821E-5	35151.708425	702.930385	659.639855	963.968809	0.027423	0.938414	0.157286	0.005904
0.170394	2.919379E-5	0.280308	3.611132E-5	38468.303135	723.804242	700.289058	1007.123301	0.026181	0.967512	0.170394	0.006467
0.183501	3.308924E-5	0.306754	3.764659E-5	42097.201359	745.751327	743.470821	1053.040314	0.025014	0.996942	0.183501	0.007330
0.399815	3.852022E-5	0.335690	3.930351E-5	46068.679807	768.849693	789.351338	1101.909881	0.023919	1.026665	0.399815	0.008533
0.599723	5.212409E-5	0.367363	4.109354E-5	50415.206097	793.178782	838.094966	1153.921901	0.022888	1.056628	0.599723	0.011547
0.799630	6.305336E-5	0.402020	4.302805E-5	55171.108949	818.841010	889.892770	1209.301345	0.021919	1.086771	0.799630	0.013968
0.999538	7.358388E-5	0.439943	4.512022E-5	60375.949206	845.938788	944.938639	1268.274996	0.021006	1.117030	0.999538	0.016300
1.199450	8.417726E-5	0.481452	4.738513E-5	66071.808847	874.587947	1003.437377	1331.086266	0.020146	1.147326	1.199450	0.018647
1.399350	9.494485E-5	0.526875	4.983824E-5	72304.864013	904.920184	1065.611045	1398.001230	0.019335	1.177575	1.399350	0.021032
1.599260	0.000105	0.576573	5.249674E-5	79126.314203	937.072847	1131.682731	1469.289395	0.018569	1.207679	1.599260	0.023232
1.799170	0.000117	0.630972	5.538134E-5	86590.786315	971.214517	1201.908707	1545.264436	0.017846	1.237532	1.799170	0.025831
1.999080	0.000126	0.690502	5.851299E-5	94760.893745	1007.504387	1276.521982	1626.214457	0.017161	1.267014	1.999080	0.027946
2.198980	0.000138	0.755643	6.191526E-5	103700.326377	1046.146942	1355.798699	1712.487529	0.016514	1.295993	2.198980	0.030580
2.398890	0.000149	0.826934	6.561517E-5	113483.364327	1087.362603	1440.027959	1804.449487	0.015901	1.324331	2.398890	0.032994
2.598800	0.000159	0.904939	6.964107E-5	124191.094232	1131.367975	1529.464677	1902.434149	0.015319	1.351872	2.598800	0.035198
2.798710	0.000168	0.990319	7.402681E-5	135905.998570	1178.444962	1624.428291	2006.863174	0.014767	1.378451	2.798710	0.037274
2.998610	0.000181	1.083744	7.880709E-5	148726.505887	1228.897089	1725.249277	2118.176840	0.014242	1.403901	2.998610	0.039985
3.198520	0.000193	1.185978	8.402203E-5	162760.085858	1283.017819	1832.195387	2236.755386	0.013743	1.428036	3.198520	0.042689
