MicroRheology Analysis v9.2.8
10/03/18 5:22:53 PM

Correlation Mode:	Cross
Geometry:	Transmission
Multi-Tau Duration (s):	120
Echo Duration (s):	60
Wavelength (nm):	685.0
Temperature (°C):	30.00
Cuvette Thickness (mm):	10.00
Absorption Length (mm):	193.813
Solvent:	Water
Solvent Refractive Index:	1.329
Particle Radius (nm):	300.0
Mean Count Rate (kHz):	128.8
l* (microns):	863.89



Lag Time (s)	Mean Square Displacement (micron^2)	Fit Lag Time (s)	Mean Square Displacement Fit (micron^2)	Frequency(rad/s)	G1 (Pa)	G2 (Pa)	G* (Pa)	Complex Viscosity (Pa s)	Loss Tangent (-)	Time (s)	Creep Compliance (1/Pa)

3.012500E-6	2.308339E-6	3.012515E-6	2.509808E-6	0.079401	0.657257	10.004391	10.025958	126.269752	15.221424	3.012500E-6	0.000520
3.212500E-6	2.650460E-6	3.265594E-6	2.660484E-6	0.086072	0.836174	10.827497	10.859736	126.170830	12.948859	3.212500E-6	0.000597
3.612500E-6	2.933222E-6	3.539964E-6	2.816918E-6	0.093302	1.052769	11.710503	11.757730	126.018604	11.123521	3.612500E-6	0.000661
4.012500E-6	3.156378E-6	3.837309E-6	2.979114E-6	0.101140	1.311985	12.655472	12.723296	125.799162	9.646052	4.012500E-6	0.000711
4.412500E-6	3.364547E-6	4.159702E-6	3.147205E-6	0.109636	1.619133	13.664374	13.759967	125.505385	8.439316	4.412500E-6	0.000758
4.812500E-6	3.594728E-6	4.509197E-6	3.321213E-6	0.118848	1.979810	14.738445	14.870824	125.124900	7.444375	4.812500E-6	0.000809
5.212500E-6	3.721582E-6	4.887975E-6	3.501140E-6	0.128831	2.400102	15.879402	16.059760	124.657723	6.616135	5.212500E-6	0.000838
5.612500E-6	3.848318E-6	5.298598E-6	3.687073E-6	0.139656	2.886188	17.087241	17.329278	124.085562	5.920349	5.612500E-6	0.000867
6.012500E-6	4.179536E-6	5.743728E-6	3.879039E-6	0.151387	3.444664	18.362651	18.682952	123.412229	5.330753	6.012500E-6	0.000941
6.412500E-6	4.280727E-6	6.226252E-6	4.077058E-6	0.164104	4.082363	19.705204	20.123636	122.627270	4.826911	6.412500E-6	0.000964
7.212500E-6	4.371887E-6	6.749352E-6	4.281167E-6	0.177891	4.806209	21.113845	21.653963	121.726023	4.393035	7.212500E-6	0.000984
8.012500E-6	4.567585E-6	7.316379E-6	4.491354E-6	0.192837	5.623094	22.586555	23.275989	120.703107	4.016749	8.012500E-6	0.001029
8.812500E-6	4.977976E-6	7.930970E-6	4.707607E-6	0.209035	6.540200	24.121415	24.992336	119.560604	3.688177	8.812500E-6	0.001121
9.612500E-6	5.155117E-6	8.597306E-6	4.929985E-6	0.226596	7.564572	25.715137	26.804683	118.292617	3.399417	9.612500E-6	0.001161
1.041250E-5	5.506423E-6	9.319487E-6	5.158394E-6	0.245635	8.702763	27.363210	28.713819	116.896340	3.144198	1.041250E-5	0.001240
1.121250E-5	5.708774E-6	1.010245E-5	5.392888E-6	0.266268	9.961631	29.061639	30.721539	115.378448	2.917358	1.121250E-5	0.001286
1.201250E-5	5.923929E-6	1.095121E-5	5.633410E-6	0.288638	11.347284	30.804259	32.827782	113.733264	2.714681	1.201250E-5	0.001334
1.281250E-5	6.081385E-6	1.187124E-5	5.879900E-6	0.312886	12.865487	32.584855	35.032749	111.966407	2.532734	1.281250E-5	0.001369
1.441250E-5	6.396316E-6	1.286849E-5	6.132302E-6	0.339171	14.521511	34.396229	37.335973	110.079967	2.368640	1.441250E-5	0.001440
1.601250E-5	6.648249E-6	1.394954E-5	6.390577E-6	0.367665	16.319955	36.230452	39.736464	108.077826	2.220009	1.601250E-5	0.001497
1.761250E-5	6.940687E-6	1.512143E-5	6.654649E-6	0.398554	18.264443	38.078589	42.232320	105.963753	2.084848	1.761250E-5	0.001563
1.921250E-5	7.213384E-6	1.639176E-5	6.924431E-6	0.432036	20.357851	39.931362	44.821377	103.744582	1.961472	1.921250E-5	0.001624
2.081250E-5	7.457145E-6	1.776893E-5	7.199844E-6	0.468328	22.602469	41.779241	47.501332	101.427557	1.848437	2.081250E-5	0.001679
2.241250E-5	7.746485E-6	1.926138E-5	7.480687E-6	0.507673	24.999002	43.611365	50.268293	99.016981	1.744524	2.241250E-5	0.001744
2.401250E-5	8.064719E-6	2.087970E-5	7.766996E-6	0.550321	27.547661	45.417511	53.118960	96.523508	1.648689	2.401250E-5	0.001816
2.561250E-5	8.494242E-6	2.263394E-5	8.058547E-6	0.596561	30.246371	47.185611	56.047523	93.951079	1.560042	2.561250E-5	0.001913
2.881250E-5	8.887883E-6	2.453514E-5	8.355135E-6	0.646670	33.093384	48.905640	59.050264	91.314305	1.477807	2.881250E-5	0.002001
3.201250E-5	9.283056E-6	2.659633E-5	8.656702E-6	0.701002	36.084314	50.565289	62.120255	88.616403	1.401309	3.201250E-5	0.002090
3.521250E-5	9.642973E-6	2.883096E-5	8.963073E-6	0.759884	39.215177	52.154675	65.252894	85.872135	1.329961	3.521250E-5	0.002171
3.841250E-5	9.956018E-6	3.125268E-5	9.273941E-6	0.823733	42.479039	53.661733	68.440123	83.085281	1.263252	3.841250E-5	0.002242
4.161250E-5	1.030432E-5	3.387851E-5	9.589265E-6	0.892936	45.868124	55.076159	71.674738	80.268645	1.200750	4.161250E-5	0.002320
4.481250E-5	1.070294E-5	3.672428E-5	9.908677E-6	0.967937	49.374934	56.388716	74.950459	77.433211	1.142051	4.481250E-5	0.002410
4.801250E-5	1.109765E-5	3.980938E-5	1.023205E-5	1.049253	52.990055	57.589683	78.259297	74.585712	1.086802	4.801250E-5	0.002499
5.121250E-5	1.147076E-5	4.315412E-5	1.055916E-5	1.137412	56.701751	58.669784	81.591863	71.734689	1.034709	5.121250E-5	0.002583
5.761250E-5	1.188667E-5	4.677975E-5	1.088970E-5	1.232949	60.500233	59.622652	84.941973	68.893358	0.985495	5.761250E-5	0.002677
6.401250E-5	1.232262E-5	5.070882E-5	1.122331E-5	1.336548	64.371780	60.439963	88.299010	66.064967	0.938920	6.401250E-5	0.002775
7.041250E-5	1.278324E-5	5.496892E-5	1.155988E-5	1.448817	68.304319	61.117127	91.655786	63.262515	0.894777	7.041250E-5	0.002879
7.681250E-5	1.321859E-5	5.958701E-5	1.189905E-5	1.570527	72.285082	61.649297	95.004047	60.491838	0.852863	7.681250E-5	0.002977
8.321250E-5	1.362157E-5	6.459314E-5	1.224052E-5	1.702484	76.299188	62.032408	98.334052	57.759165	0.813015	8.321250E-5	0.003067
8.961250E-5	1.392659E-5	7.002004E-5	1.258397E-5	1.845497	80.333772	62.265040	101.638822	55.073954	0.775079	8.961250E-5	0.003136
9.601250E-5	1.426411E-5	7.590209E-5	1.292902E-5	2.000555	84.373537	62.345213	104.908623	52.439759	0.738919	9.601250E-5	0.003212
0.000102	1.464306E-5	8.227801E-5	1.327536E-5	2.168593	88.405455	62.273941	108.136803	49.864950	0.704413	0.000102	0.003297
0.000115	1.506067E-5	8.919073E-5	1.362272E-5	2.350766	92.416504	62.052264	111.316188	47.353160	0.671441	0.000115	0.003391
0.000128	1.551329E-5	9.668407E-5	1.397068E-5	2.548290	96.391767	61.682104	114.437995	44.907756	0.639910	0.000128	0.003493
0.000141	1.595633E-5	0.000105	1.431885E-5	2.762361	100.319137	61.167807	117.496510	42.534808	0.609732	0.000141	0.003593
0.000154	1.630082E-5	0.000114	1.466687E-5	2.994442	104.185750	60.513501	120.484664	40.236098	0.580823	0.000154	0.003671
0.000166	1.662929E-5	0.000123	1.501439E-5	3.245994	107.979740	59.725036	123.396532	38.015018	0.553113	0.000166	0.003745
0.000179	1.691285E-5	0.000134	1.536112E-5	3.518643	111.691203	58.809039	126.227683	35.873964	0.526532	0.000179	0.003808
0.000192	1.720188E-5	0.000145	1.570653E-5	3.814246	115.309714	57.772353	128.972769	33.813439	0.501019	0.000192	0.003874
0.000205	1.753652E-5	0.000157	1.605027E-5	4.134680	118.826122	56.623142	131.627609	31.835014	0.476521	0.000205	0.003949
0.000230	1.792260E-5	0.000170	1.639201E-5	4.482035	122.232146	55.369946	134.188407	29.939170	0.452990	0.000230	0.004036
0.000256	1.831356E-5	0.000184	1.673127E-5	4.858546	125.521130	54.021877	136.652542	28.126224	0.430381	0.000256	0.004124
0.000282	1.871006E-5	0.000200	1.706779E-5	5.266715	128.687050	52.588169	139.017526	26.395489	0.408652	0.000282	0.004213
0.000307	1.902651E-5	0.000217	1.740115E-5	5.709197	131.725064	51.078517	141.281660	24.746328	0.387766	0.000307	0.004284
0.000333	1.929819E-5	0.000235	1.773094E-5	6.188896	134.630623	49.502789	143.443127	23.177497	0.367693	0.000333	0.004346
0.000358	1.951239E-5	0.000255	1.805678E-5	6.708816	137.400895	47.871217	145.501407	21.688090	0.348405	0.000358	0.004394
0.000384	1.972908E-5	0.000276	1.837833E-5	7.272335	140.035211	46.193517	147.457456	20.276495	0.329871	0.000384	0.004443
0.000410	1.997388E-5	0.000299	1.869531E-5	7.883373	142.531652	44.479168	149.310644	18.939945	0.312065	0.000410	0.004498
0.000461	2.025716E-5	0.000324	1.900730E-5	8.545631	144.890775	42.738239	151.062549	17.677166	0.294969	0.000461	0.004562
0.000512	2.056532E-5	0.000351	1.931398E-5	9.263569	147.113144	40.979927	152.714215	16.485462	0.278561	0.000512	0.004631
0.000563	2.086113E-5	0.000381	1.961498E-5	10.041703	149.200948	39.213416	154.267997	15.362732	0.262823	0.000563	0.004698
0.000614	2.109388E-5	0.000413	1.991014E-5	10.885235	151.157053	37.447087	155.726487	14.306212	0.247736	0.000614	0.004750
0.000666	2.129009E-5	0.000448	2.019906E-5	11.799791	152.984332	35.689183	157.092087	13.313125	0.233287	0.000666	0.004794
0.000717	2.145148E-5	0.000485	2.048149E-5	12.791167	154.686141	33.947900	158.367491	12.381004	0.219463	0.000717	0.004830
0.000768	2.160922E-5	0.000526	2.075724E-5	13.865519	156.267901	32.230483	159.557077	11.507473	0.206251	0.000768	0.004866
0.000819	2.178863E-5	0.000570	2.102605E-5	15.030437	157.734186	30.543354	160.664152	10.689254	0.193638	0.000819	0.004906
0.000922	2.199416E-5	0.000618	2.128765E-5	16.293297	159.089898	28.893238	161.692346	9.923856	0.181616	0.000922	0.004953
0.001024	2.222192E-5	0.000670	2.154191E-5	17.661984	160.340953	27.286073	162.646091	9.208824	0.170175	0.001024	0.005004
0.001126	2.244743E-5	0.000726	2.178865E-5	19.145582	161.493633	25.726858	163.530012	8.541397	0.159306	0.001126	0.005055
0.001229	2.263159E-5	0.000787	2.202774E-5	20.754113	162.553932	24.220283	164.348420	7.918836	0.148998	0.001229	0.005096
0.001331	2.280126E-5	0.000854	2.225906E-5	22.497888	163.527937	22.770891	165.105723	7.338721	0.139248	0.001331	0.005134
0.001434	2.293528E-5	0.000925	2.248248E-5	24.387893	164.422147	21.382618	165.806691	6.798730	0.130047	0.001434	0.005165
0.001536	2.308823E-5	0.001003	2.269798E-5	26.436441	165.243431	20.058576	166.456415	6.296476	0.121388	0.001536	0.005199
0.001638	2.327020E-5	0.001087	2.290551E-5	28.657580	165.997825	18.801712	167.059218	5.829495	0.113265	0.001638	0.005240
0.001843	2.347563E-5	0.001179	2.310506E-5	31.064717	166.692228	17.614599	167.620324	5.395843	0.105671	0.001843	0.005286
0.002048	2.369179E-5	0.001278	2.329661E-5	33.674535	167.332873	16.499181	168.144323	4.993219	0.098601	0.002048	0.005335
0.002253	2.392132E-5	0.001385	2.348021E-5	36.503535	167.926204	15.457272	168.636109	4.619720	0.092048	0.002253	0.005387
0.002458	2.412552E-5	0.001501	2.365590E-5	39.570564	168.478107	14.490400	169.100101	4.273381	0.086008	0.002458	0.005433
0.002662	2.431647E-5	0.001627	2.382384E-5	42.894225	168.995135	13.599592	169.541453	3.952547	0.080473	0.002662	0.005476
0.002867	2.446694E-5	0.001764	2.398408E-5	46.498433	169.482802	12.785599	169.964383	3.655271	0.075439	0.002867	0.005509
0.003072	2.462499E-5	0.001912	2.413677E-5	50.404814	169.946839	12.049241	170.373450	3.380103	0.070900	0.003072	0.005545
0.003277	2.479464E-5	0.002073	2.428213E-5	54.638650	170.393000	11.390752	170.773311	3.125504	0.066850	0.003277	0.005583
0.003686	2.500009E-5	0.002247	2.442029E-5	59.229224	170.826383	10.810305	171.168092	2.889926	0.063282	0.003686	0.005630
0.004096	2.522527E-5	0.002436	2.455151E-5	64.204800	171.252186	10.308006	171.562135	2.672108	0.060192	0.004096	0.005680
0.004506	2.542764E-5	0.002641	2.467602E-5	69.598489	171.675277	9.883716	171.959555	2.470737	0.057572	0.004506	0.005726
0.004915	2.557575E-5	0.002862	2.479409E-5	75.445147	172.100382	9.537221	172.364440	2.284633	0.055417	0.004915	0.005759
0.005325	2.571107E-5	0.003103	2.490604E-5	81.783407	172.531929	9.268222	172.780689	2.112662	0.053719	0.005325	0.005790
0.005734	2.582313E-5	0.003364	2.501215E-5	88.654017	172.974186	9.076369	173.212152	1.953799	0.052472	0.005734	0.005815
0.006144	2.594847E-5	0.003646	2.511278E-5	96.101725	173.431246	8.961244	173.662607	1.807071	0.051670	0.006144	0.005843
0.006554	2.610988E-5	0.003952	2.520826E-5	104.175619	173.906943	8.922414	174.135678	1.671559	0.051306	0.006554	0.005879
0.007373	2.629584E-5	0.004285	2.529902E-5	112.927803	174.404859	8.959424	174.634836	1.546429	0.051371	0.007373	0.005921
0.008192	2.647189E-5	0.004645	2.538544E-5	122.413233	174.928718	9.071846	175.163794	1.430922	0.051860	0.008192	0.005961
0.009011	2.660952E-5	0.005035	2.546791E-5	132.698545	175.481601	9.259247	175.725713	1.324247	0.052765	0.009011	0.005992
0.009830	2.666072E-5	0.005458	2.554692E-5	143.845376	176.066839	9.521244	176.324093	1.225789	0.054077	0.009830	0.006003
0.010650	2.665092E-5	0.005916	2.562291E-5	155.930139	176.687353	9.857507	176.962118	1.134881	0.055791	0.010650	0.006001
0.011469	2.662340E-5	0.006413	2.569635E-5	169.029292	177.346138	10.267786	177.643126	1.050961	0.057897	0.011469	0.005995
0.012288	2.658345E-5	0.006952	2.576774E-5	183.231408	178.045775	10.751855	178.370122	0.973469	0.060388	0.012288	0.005986
0.013107	2.647717E-5	0.007536	2.583759E-5	198.624587	178.788849	11.309487	179.146189	0.901934	0.063256	0.013107	0.005962
0.014746	2.630230E-5	0.008169	2.590644E-5	215.307561	179.578204	11.940779	179.974758	0.835896	0.066493	0.014746	0.005923
0.016384	2.612611E-5	0.008855	2.597480E-5	233.398097	180.416018	12.645820	180.858664	0.774893	0.070093	0.016384	0.005883
0.018022	2.608660E-5	0.009599	2.604328E-5	253.006876	181.304536	13.424586	181.800864	0.718561	0.074044	0.018022	0.005874
0.019661	2.624868E-5	0.010406	2.611241E-5	274.258225	182.246318	14.277455	182.804722	0.666542	0.078342	0.019661	0.005911
0.021299	2.659708E-5	0.011280	2.618281E-5	297.299052	183.243471	15.204912	183.873215	0.618479	0.082977	0.021299	0.005989
0.022938	2.700221E-5	0.012227	2.625507E-5	322.275949	184.298182	16.207434	185.009461	0.574072	0.087941	0.022938	0.006080
0.024576	2.737505E-5	0.013255	2.632982E-5	349.352383	185.412395	17.285567	186.216398	0.533033	0.093228	0.024576	0.006164
0.026214	2.763430E-5	0.014368	2.640769E-5	378.698329	186.588450	18.440142	187.497436	0.495110	0.098828	0.026214	0.006223
0.029491	2.772720E-5	0.015575	2.648934E-5	410.512426	187.828363	19.672183	188.855735	0.460049	0.104735	0.029491	0.006244
0.032768	2.774956E-5	0.016884	2.657545E-5	444.999357	189.134129	20.982682	190.294487	0.427629	0.110941	0.032768	0.006249
0.036045	2.776759E-5	0.018302	2.666671E-5	482.380527	190.508133	22.373035	191.817365	0.397647	0.117439	0.036045	0.006253
0.039322	2.795330E-5	0.019839	2.676381E-5	522.909946	191.951987	23.844505	193.427314	0.369906	0.124221	0.039322	0.006295
0.042598	2.829425E-5	0.021506	2.686750E-5	566.834058	193.468251	25.398688	195.128311	0.344242	0.131281	0.042598	0.006371
0.045875	2.856672E-5	0.023313	2.697854E-5	614.454181	195.059114	27.037622	196.924074	0.320486	0.138612	0.045875	0.006433
0.049152	2.876805E-5	0.025271	2.709765E-5	666.082734	196.726139	28.762863	198.817696	0.298488	0.146208	0.049152	0.006478
0.052429	2.895654E-5	0.027395	2.722570E-5	722.031250	198.472321	30.576702	200.813836	0.278123	0.154060	0.052429	0.006520
0.058982	2.915451E-5	0.029696	2.736346E-5	782.692108	200.299641	32.481682	202.916254	0.259254	0.162165	0.058982	0.006565
0.065536	2.955932E-5	0.032191	2.751181E-5	848.448765	202.210518	34.480239	205.129180	0.241770	0.170517	0.065536	0.006656
0.072090	2.996111E-5	0.034895	2.767159E-5	919.731046	204.207286	36.575109	207.456873	0.225563	0.179108	0.072090	0.006747
0.078643	3.036326E-5	0.037827	2.784380E-5	996.998260	206.292496	38.769272	209.903907	0.210536	0.187934	0.078643	0.006837
0.085197	3.076458E-5	0.041004	2.802931E-5	1080.753634	208.468692	41.065948	212.474958	0.196599	0.196989	0.085197	0.006928
0.091750	3.104090E-5	0.044449	2.822917E-5	1171.538036	210.739063	43.468936	215.175512	0.183669	0.206269	0.091750	0.006990
0.098304	3.131340E-5	0.048183	2.844444E-5	1269.963931	213.106004	45.981987	218.010349	0.171667	0.215770	0.098304	0.007051
0.104858	3.174958E-5	0.052231	2.867616E-5	1376.653343	215.572469	48.608985	220.984892	0.160523	0.225488	0.104858	0.007149
0.117965	3.224427E-5	0.056619	2.892543E-5	1492.299242	218.141692	51.354422	224.105052	0.150174	0.235418	0.117965	0.007261
0.131072	3.295927E-5	0.061375	2.919352E-5	1617.662057	220.816862	54.223082	227.376844	0.140559	0.245557	0.131072	0.007422
0.144179	3.375226E-5	0.066532	2.948172E-5	1753.557640	223.601681	57.220264	230.806998	0.131622	0.255903	0.144179	0.007600
0.157286	3.378523E-5	0.072121	2.979130E-5	1900.891388	226.499001	60.351126	234.401484	0.123311	0.266452	0.157286	0.007608
0.170394	3.494452E-5	0.078179	3.012359E-5	2060.589669	229.512401	63.621124	238.167147	0.115582	0.277201	0.170394	0.007869
0.183501	3.808289E-5	0.084747	3.048026E-5	2233.683745	232.646176	67.036740	242.111890	0.108391	0.288149	0.183501	0.008576
0.399815	4.357453E-5	0.091868	3.086280E-5	2421.327396	235.904589	70.605031	246.243875	0.101698	0.299295	0.399815	0.009812
0.599722	5.093047E-5	0.099585	3.127282E-5	2624.764719	239.290318	74.332199	250.569615	0.095464	0.310636	0.599722	0.011469
0.799630	5.924424E-5	0.107950	3.171213E-5	2845.226704	242.809604	78.226505	255.099765	0.089659	0.322172	0.799630	0.013341
0.999537	6.660322E-5	0.117019	3.218272E-5	3084.263150	246.466042	82.296184	259.842590	0.084248	0.333905	0.999537	0.014998
1.199450	7.393703E-5	0.126849	3.268654E-5	3343.381528	250.264636	86.549753	264.807945	0.079204	0.345833	1.199450	0.016649
1.399350	8.118070E-5	0.137507	3.322586E-5	3624.284798	254.209351	90.995844	270.004885	0.074499	0.357956	1.399350	0.018280
1.599260	8.843272E-5	0.149058	3.380277E-5	3928.730613	258.306287	95.644618	275.445150	0.070110	0.370276	1.599260	0.019913
1.799170	9.564516E-5	0.161580	3.441997E-5	4258.762116	262.560972	100.507130	281.140440	0.066015	0.382795	1.799170	0.021537
1.999070	0.000103	0.175156	3.508019E-5	4616.549761	266.978768	105.594616	287.102570	0.062190	0.395517	1.999070	0.023150
2.198980	0.000110	0.189872	3.578612E-5	5004.410078	271.565226	110.918863	293.343939	0.058617	0.408443	2.198980	0.024775
2.398890	0.000118	0.205823	3.654088E-5	5424.844845	276.325552	116.491996	299.876968	0.055278	0.421575	2.398890	0.026485
2.598800	0.000125	0.223113	3.734776E-5	5880.508235	281.268047	122.329005	306.718274	0.052158	0.434920	2.598800	0.028135
2.798700	0.000132	0.241857	3.821048E-5	6374.537830	286.397739	128.444271	313.881499	0.049240	0.448482	2.798700	0.029798
2.998610	0.000139	0.262175	3.913283E-5	6910.032479	291.722276	134.853765	321.383609	0.046510	0.462268	2.998610	0.031300
3.198520	0.000147	0.284200	4.011903E-5	7490.547601	297.249222	141.575159	329.242503	0.043954	0.476284	3.198520	0.033149
3.398430	0.000155	0.308072	4.117339E-5	8119.934181	302.983248	148.624705	337.473186	0.041561	0.490538	3.398430	0.034802
3.598340	0.000161	0.333952	4.230112E-5	8802.021200	308.933751	156.022343	346.096856	0.039320	0.505035	3.598340	0.036329
3.798240	0.000169	0.362009	4.350753E-5	9541.407248	315.108795	163.789783	355.134687	0.037220	0.519788	3.798240	0.038114
3.998150	0.000177	0.392420	4.479812E-5	10342.965365	321.516361	171.949566	364.608590	0.035252	0.534808	3.998150	0.039868
4.198060	0.000185	0.425393	4.617956E-5	11211.927357	328.164332	180.525404	374.541387	0.033406	0.550107	4.198060	0.041548
4.397970	0.000192	0.461128	4.765801E-5	12153.916143	335.059715	189.541618	384.955891	0.031673	0.565695	4.397970	0.043196
4.597870	0.000199	0.499861	4.924096E-5	13174.868094	342.212898	199.026799	395.880454	0.030048	0.581588	4.597870	0.044913
4.797780	0.000207	0.541859	5.093705E-5	14281.624851	349.633331	209.011866	407.344358	0.028522	0.597803	4.797780	0.046568
4.997690	0.000214	0.587377	5.275420E-5	15481.520758	357.328496	219.527732	419.375821	0.027089	0.614358	4.997690	0.048207
5.197590	0.000221	0.636729	5.470264E-5	16782.181261	365.307852	230.608547	432.007093	0.025742	0.631272	5.197590	0.049817
5.397500	0.000228	0.690218	5.679198E-5	18192.097405	373.580472	242.291248	445.272296	0.024476	0.648565	5.397500	0.051340
5.597410	0.000235	0.748196	5.903358E-5	19720.435491	382.153391	254.613420	459.204974	0.023286	0.666260	5.597410	0.052979
5.797320	0.000243	0.811064	6.144068E-5	21376.769779	391.041319	267.622582	473.851411	0.022167	0.684384	5.797320	0.054792
5.997230	0.000251	0.879189	6.402506E-5	23172.756302	400.250124	281.363903	489.250250	0.021113	0.702970	5.997230	0.056445
6.197130	0.000257	0.953059	6.680300E-5	25119.706680	409.787197	295.884659	505.443645	0.020121	0.722045	6.197130	0.057970
