MicroRheology Analysis v9.2.8
10/11/18 8:13:31 PM

Correlation Mode:	Cross
Geometry:	Transmission
Multi-Tau Duration (s):	120
Echo Duration (s):	60
Wavelength (nm):	685.0
Temperature (°C):	19.99
Cuvette Thickness (mm):	10.00
Absorption Length (mm):	112.727
Solvent:	Water
Solvent Refractive Index:	1.329
Particle Radius (nm):	300.0
Mean Count Rate (kHz):	122.7
l* (microns):	943.21



Lag Time (s)	Mean Square Displacement (micron^2)	Fit Lag Time (s)	Mean Square Displacement Fit (micron^2)	Frequency(rad/s)	G1 (Pa)	G2 (Pa)	G* (Pa)	Complex Viscosity (Pa s)	Loss Tangent (-)	Time (s)	Creep Compliance (1/Pa)

9.612500E-6	5.156510E-6	9.612532E-6	5.049139E-6	0.079401	3.033268	23.792385	23.984959	302.075006	7.843813	9.612500E-6	0.001201
1.041250E-5	5.311077E-6	1.041344E-5	5.302020E-6	0.086017	4.703816	25.593553	26.022218	302.524623	5.441019	1.041250E-5	0.001237
1.121250E-5	5.518461E-6	1.128127E-5	5.565157E-6	0.093183	6.545301	27.352795	28.125014	301.824670	4.178997	1.121250E-5	0.001285
1.201250E-5	5.778717E-6	1.222118E-5	5.838535E-6	0.100948	8.550210	29.054432	30.286402	300.019738	3.398096	1.201250E-5	0.001346
1.281250E-5	6.050252E-6	1.323938E-5	6.122282E-6	0.109359	10.709285	30.684679	32.499820	297.184116	2.865241	1.281250E-5	0.001409
1.441250E-5	6.528174E-6	1.434270E-5	6.416534E-6	0.118472	13.011422	32.230353	34.757629	293.382606	2.477082	1.441250E-5	0.001520
1.601250E-5	6.837085E-6	1.553758E-5	6.721150E-6	0.128342	15.445008	33.681130	37.053567	288.709432	2.180713	1.601250E-5	0.001592
1.761250E-5	7.209290E-6	1.683227E-5	7.036280E-6	0.139037	17.996716	35.026672	39.379557	283.230451	1.946281	1.761250E-5	0.001679
1.921250E-5	7.494431E-6	1.823489E-5	7.361845E-6	0.150622	20.652692	36.259487	41.728696	277.043244	1.755678	1.921250E-5	0.001745
2.081250E-5	7.765805E-6	1.975405E-5	7.697704E-6	0.163171	23.398972	37.373419	44.094040	270.231803	1.597225	2.081250E-5	0.001808
2.241250E-5	8.025610E-6	2.139995E-5	8.043873E-6	0.176767	26.221046	38.363747	46.468488	262.879353	1.463090	2.241250E-5	0.001869
2.401250E-5	8.380199E-6	2.318334E-5	8.400265E-6	0.191497	29.104262	39.227399	48.845132	255.070589	1.347823	2.401250E-5	0.001951
2.561250E-5	8.903043E-6	2.511470E-5	8.766543E-6	0.207452	32.034276	39.962899	51.217459	246.888298	1.247504	2.561250E-5	0.002073
2.881250E-5	9.529712E-6	2.720769E-5	9.142767E-6	0.224735	34.997875	40.570501	53.580004	238.413730	1.159228	2.881250E-5	0.002219
3.201250E-5	1.004923E-5	2.947436E-5	9.528476E-6	0.243463	37.981062	41.050680	55.926017	229.710253	1.080820	3.201250E-5	0.002340
3.521250E-5	1.045909E-5	3.193036E-5	9.923622E-6	0.263748	40.971160	41.406147	58.250364	220.855808	1.010617	3.521250E-5	0.002436
3.841250E-5	1.077437E-5	3.459102E-5	1.032785E-5	0.285723	43.956465	41.640163	60.548113	211.911771	0.947305	3.841250E-5	0.002509
4.161250E-5	1.110480E-5	3.747304E-5	1.074081E-5	0.309530	46.925695	41.756765	62.814395	202.934692	0.889849	4.161250E-5	0.002586
4.481250E-5	1.152944E-5	4.059516E-5	1.116219E-5	0.335320	49.869131	41.761099	65.045520	193.980601	0.837414	4.481250E-5	0.002685
4.801250E-5	1.202335E-5	4.397801E-5	1.159172E-5	0.363265	52.776159	41.658033	67.236260	185.088941	0.789334	4.801250E-5	0.002800
5.121250E-5	1.250106E-5	4.764246E-5	1.202888E-5	0.393526	55.639558	41.454474	69.384680	176.315185	0.745054	5.121250E-5	0.002911
5.761250E-5	1.304950E-5	5.161220E-5	1.247329E-5	0.426319	58.451074	41.155955	71.486647	167.683411	0.704109	5.761250E-5	0.003039
6.401250E-5	1.367494E-5	5.591211E-5	1.292442E-5	0.461837	61.204571	40.769627	73.540207	159.233973	0.666121	6.401250E-5	0.003184
7.041250E-5	1.425259E-5	6.057072E-5	1.338192E-5	0.500320	63.894247	40.301941	75.542844	150.989102	0.630760	7.041250E-5	0.003319
7.681250E-5	1.480499E-5	6.561811E-5	1.384529E-5	0.542010	66.515100	39.759801	77.492582	142.972729	0.597756	7.681250E-5	0.003448
8.321250E-5	1.530795E-5	7.108573E-5	1.431394E-5	0.587172	69.062956	39.150052	79.387773	135.203547	0.566875	8.321250E-5	0.003565
8.961250E-5	1.568041E-5	7.700825E-5	1.478730E-5	0.636095	71.534725	38.479505	81.227392	127.696965	0.537914	8.961250E-5	0.003651
9.601250E-5	1.614899E-5	8.342503E-5	1.526493E-5	0.689096	73.928058	37.754698	83.010692	120.463218	0.510695	9.601250E-5	0.003761
0.000102	1.669660E-5	9.037524E-5	1.574612E-5	0.746520	76.240397	36.981955	84.736433	113.508542	0.485070	0.000102	0.003888
0.000115	1.726883E-5	9.790598E-5	1.623047E-5	0.808718	78.470917	36.167760	86.404813	106.841717	0.460907	0.000115	0.004021
0.000128	1.793434E-5	0.000106	1.671726E-5	0.876104	80.618601	35.317836	88.015387	100.462225	0.438085	0.000128	0.004176
0.000141	1.858701E-5	0.000115	1.720595E-5	0.949099	82.683376	34.437989	89.568498	94.372089	0.416504	0.000141	0.004328
0.000154	1.911858E-5	0.000124	1.769581E-5	1.028180	84.665274	33.533506	91.064288	88.568462	0.396072	0.000154	0.004452
0.000166	1.963605E-5	0.000135	1.818638E-5	1.113843	86.565156	32.609510	92.503548	83.048977	0.376705	0.000166	0.004573
0.000179	2.006763E-5	0.000146	1.867701E-5	1.206654	88.383944	31.670625	93.886900	77.807656	0.358330	0.000179	0.004673
0.000192	2.050820E-5	0.000158	1.916706E-5	1.307205	90.122596	30.721329	95.214928	72.838545	0.340884	0.000192	0.004776
0.000205	2.102809E-5	0.000171	1.965603E-5	1.416126	91.782581	29.765856	96.488592	68.135611	0.324308	0.000205	0.004897
0.000230	2.161390E-5	0.000186	2.014316E-5	1.534109	93.366052	28.807958	97.709356	63.691274	0.308549	0.000230	0.005033
0.000256	2.219995E-5	0.000201	2.062801E-5	1.661942	94.874679	27.850993	98.878120	59.495530	0.293556	0.000256	0.005170
0.000282	2.278109E-5	0.000218	2.110985E-5	1.800421	96.310396	26.898315	99.996058	55.540367	0.279288	0.000282	0.005305
0.000307	2.325941E-5	0.000236	2.158835E-5	1.950419	97.675716	25.952836	101.064807	51.816970	0.265704	0.000307	0.005416
0.000333	2.370403E-5	0.000256	2.206271E-5	2.112927	98.972927	25.017075	102.085720	48.314837	0.252767	0.000333	0.005520
0.000358	2.407998E-5	0.000277	2.253260E-5	2.288982	100.204459	24.093435	103.060309	45.024514	0.240443	0.000358	0.005607
0.000384	2.449556E-5	0.000300	2.299736E-5	2.479721	101.372658	23.184071	103.989985	41.936166	0.228701	0.000384	0.005704
0.000410	2.493964E-5	0.000325	2.345663E-5	2.686350	102.479925	22.290974	104.876225	39.040424	0.217516	0.000410	0.005808
0.000461	2.543277E-5	0.000352	2.390994E-5	2.910173	103.528866	21.415865	105.720695	36.327977	0.206859	0.000461	0.005923
0.000512	2.595641E-5	0.000382	2.435668E-5	3.152638	104.522221	20.560151	106.525182	33.789222	0.196706	0.000512	0.006044
0.000563	2.645845E-5	0.000413	2.479667E-5	3.415346	105.462230	19.725144	107.291022	31.414389	0.187035	0.000563	0.006161
0.000614	2.686139E-5	0.000448	2.522928E-5	3.699911	106.351511	18.912104	108.019959	29.195289	0.177826	0.000614	0.006255
0.000666	2.723264E-5	0.000485	2.565434E-5	4.008179	107.192583	18.121966	108.713639	27.122950	0.169060	0.000666	0.006342
0.000717	2.755337E-5	0.000526	2.607134E-5	4.342133	107.987951	17.355562	109.373732	25.188939	0.160718	0.000717	0.006416
0.000768	2.786297E-5	0.000569	2.648020E-5	4.703931	108.740102	16.613586	110.001914	23.385106	0.152783	0.000768	0.006488
0.000819	2.819747E-5	0.000617	2.688038E-5	5.095920	109.451187	15.896709	110.599582	21.703557	0.145240	0.000819	0.006566
0.000922	2.856928E-5	0.000668	2.727182E-5	5.520498	110.123678	15.205509	111.168484	20.137401	0.138077	0.000922	0.006653
0.001024	2.897265E-5	0.000724	2.765421E-5	5.980441	110.759978	14.540305	111.710309	18.679276	0.131278	0.001024	0.006747
0.001126	2.935224E-5	0.000784	2.802740E-5	6.478760	111.362279	13.901408	112.226585	17.322233	0.124830	0.001126	0.006835
0.001229	2.968023E-5	0.000850	2.839113E-5	7.018613	111.932665	13.289157	112.718780	16.059980	0.118725	0.001229	0.006912
0.001331	2.996334E-5	0.000920	2.874538E-5	7.603356	112.473551	12.703713	113.188710	14.886677	0.112948	0.001331	0.006978
0.001434	3.018491E-5	0.000997	2.908996E-5	8.236967	112.986808	12.145188	113.637689	13.796059	0.107492	0.001434	0.007029
0.001536	3.041045E-5	0.001080	2.942491E-5	8.923278	113.474597	11.613758	114.067364	12.783123	0.102347	0.001536	0.007082
0.001638	3.068209E-5	0.001170	2.975001E-5	9.666787	113.938863	11.109456	114.479188	11.842527	0.097504	0.001638	0.007145
0.001843	3.097949E-5	0.001268	3.006536E-5	10.472162	114.381706	10.632289	114.874802	10.969541	0.092954	0.001843	0.007214
0.002048	3.132059E-5	0.001373	3.037094E-5	11.344765	114.804901	10.182248	115.255557	10.159361	0.088692	0.002048	0.007294
0.002253	3.164380E-5	0.001488	3.066673E-5	12.289954	115.210455	9.759335	115.623066	9.407934	0.084709	0.002253	0.007369
0.002458	3.190598E-5	0.001612	3.095281E-5	13.314024	115.600108	9.363491	115.978705	8.711018	0.080999	0.002458	0.007430
0.002662	3.214755E-5	0.001746	3.122928E-5	14.423356	115.975717	8.994694	116.323994	8.064974	0.077557	0.002662	0.007486
0.002867	3.236691E-5	0.001892	3.149623E-5	15.625204	116.338947	8.652903	116.660290	7.466161	0.074377	0.002867	0.007537
0.003072	3.259484E-5	0.002049	3.175375E-5	16.927016	116.691661	8.338059	116.989175	6.911388	0.071454	0.003072	0.007590
0.003277	3.288367E-5	0.002220	3.200200E-5	18.337579	117.035418	8.050104	117.311949	6.397352	0.068783	0.003277	0.007658
0.003686	3.319546E-5	0.002405	3.224113E-5	19.865531	117.371871	7.789050	117.630036	5.921313	0.066362	0.003686	0.007730
0.004096	3.352720E-5	0.002605	3.247133E-5	21.520600	117.702767	7.554836	117.944974	5.480562	0.064186	0.004096	0.007807
0.004506	3.385504E-5	0.002822	3.269283E-5	23.313945	118.029537	7.347452	118.258008	5.072415	0.062251	0.004506	0.007884
0.004915	3.414746E-5	0.003058	3.290575E-5	25.256277	118.353897	7.166921	118.570695	4.694702	0.060555	0.004915	0.007952
0.005325	3.441056E-5	0.003312	3.311047E-5	27.360786	118.677305	7.013247	118.884349	4.345063	0.059095	0.005325	0.008013
0.005734	3.464711E-5	0.003588	3.330709E-5	29.640476	119.001354	6.886492	119.200445	4.021543	0.057869	0.005734	0.008068
0.006144	3.488695E-5	0.003887	3.349595E-5	32.110387	119.327461	6.786728	119.520302	3.722169	0.056875	0.006144	0.008124
0.006554	3.516019E-5	0.004211	3.367734E-5	34.785716	119.657198	6.714064	119.845416	3.445248	0.056111	0.006554	0.008188
0.007373	3.545277E-5	0.004562	3.385147E-5	37.684235	119.991961	6.668623	120.177125	3.189056	0.055576	0.007373	0.008256
0.008192	3.574274E-5	0.004942	3.401868E-5	40.823863	120.333332	6.650577	120.516974	2.952121	0.055268	0.008192	0.008323
0.009011	3.598664E-5	0.005354	3.417927E-5	44.225898	120.682612	6.660118	120.866249	2.732929	0.055187	0.009011	0.008380
0.009830	3.612602E-5	0.005800	3.433355E-5	47.910676	121.041291	6.697486	121.226443	2.530260	0.055332	0.009830	0.008413
0.010650	3.619585E-5	0.006284	3.448186E-5	51.902294	121.410905	6.762966	121.599119	2.342847	0.055703	0.010650	0.008429
0.011469	3.620614E-5	0.006807	3.462454E-5	56.227691	121.792665	6.856858	121.985531	2.169492	0.056299	0.011469	0.008431
0.012288	3.611791E-5	0.007374	3.476188E-5	60.911885	122.188198	6.979534	122.387375	2.009253	0.057121	0.012288	0.008411
0.013107	3.588108E-5	0.007989	3.489430E-5	65.987672	122.598776	7.131402	122.806013	1.861045	0.058169	0.013107	0.008356
0.014746	3.552361E-5	0.008654	3.502209E-5	71.485618	123.025914	7.312919	123.243070	1.724026	0.059442	0.014746	0.008272
0.016384	3.511076E-5	0.009375	3.514563E-5	77.442479	123.470889	7.524575	123.699958	1.597314	0.060942	0.016384	0.008176
0.018022	3.482974E-5	0.010157	3.526529E-5	83.894240	123.935317	7.766959	124.178454	1.480179	0.062669	0.018022	0.008111
0.019661	3.482737E-5	0.011003	3.538143E-5	90.885680	124.420389	8.040667	124.679932	1.371833	0.064625	0.019661	0.008110
0.021299	3.515972E-5	0.011920	3.549445E-5	98.457603	124.927687	8.346365	125.206185	1.271676	0.066810	0.021299	0.008188
0.022938	3.569838E-5	0.012913	3.560468E-5	106.661454	125.458581	8.684818	125.758823	1.179047	0.069225	0.022938	0.008313
0.024576	3.635977E-5	0.013989	3.571256E-5	115.548696	126.014503	9.056806	126.339545	1.093388	0.071871	0.024576	0.008467
0.026214	3.690782E-5	0.015154	3.581843E-5	125.176203	126.596981	9.463239	126.950181	1.014172	0.074751	0.026214	0.008595
0.029491	3.713077E-5	0.016417	3.592272E-5	135.607511	127.207281	9.905004	127.592325	0.940894	0.077865	0.029491	0.008647
0.032768	3.695996E-5	0.017785	3.602579E-5	146.905308	127.847093	10.383147	128.268035	0.873134	0.081215	0.032768	0.008607
0.036045	3.663352E-5	0.019267	3.612809E-5	159.146967	128.517741	10.898782	128.979041	0.810440	0.084804	0.036045	0.008531
0.039322	3.646349E-5	0.020872	3.622997E-5	172.407392	129.220712	11.453015	129.727268	0.752446	0.088631	0.039322	0.008491
0.042598	3.671649E-5	0.022611	3.633188E-5	186.771192	129.957659	12.047179	130.514856	0.698795	0.092701	0.042598	0.008550
0.045875	3.725140E-5	0.024495	3.643424E-5	202.333797	130.729981	12.682626	131.343736	0.649144	0.097014	0.045875	0.008675
0.049152	3.761085E-5	0.026536	3.653744E-5	219.191662	131.539309	13.360793	132.216113	0.603199	0.101573	0.049152	0.008758
0.052429	3.763090E-5	0.028747	3.664194E-5	237.454769	132.387323	14.083337	133.134307	0.560672	0.106380	0.052429	0.008763
0.058982	3.770439E-5	0.031143	3.674815E-5	257.243415	133.275338	14.851822	134.100307	0.521297	0.111437	0.058982	0.008780
0.065536	3.784016E-5	0.033738	3.685655E-5	278.676664	134.205044	15.667928	135.116534	0.484851	0.116746	0.065536	0.008812
0.072090	3.794042E-5	0.036549	3.696755E-5	301.893367	135.178427	16.533778	136.185803	0.451106	0.122311	0.072090	0.008835
0.078643	3.835492E-5	0.039594	3.708165E-5	327.052644	136.196590	17.451228	137.310074	0.419841	0.128133	0.078643	0.008932
0.085197	3.862446E-5	0.042893	3.719928E-5	354.298420	137.261768	18.422468	138.492528	0.390892	0.134214	0.085197	0.008994
0.091750	3.869591E-5	0.046467	3.732098E-5	383.821449	138.375359	19.449845	139.735595	0.364064	0.140559	0.091750	0.009011
0.098304	3.896088E-5	0.050338	3.744718E-5	415.800509	139.539269	20.535722	141.042275	0.339207	0.147168	0.098304	0.009073
0.104858	3.924680E-5	0.054533	3.757844E-5	450.444592	140.755363	21.682795	142.415645	0.316167	0.154046	0.104858	0.009139
0.117965	3.940597E-5	0.059077	3.771528E-5	487.978135	142.025374	22.893792	143.858725	0.294806	0.161195	0.117965	0.009176
0.131072	3.985729E-5	0.063999	3.785820E-5	528.637970	143.351296	24.171666	145.374906	0.274999	0.168618	0.131072	0.009282
0.144179	4.029835E-5	0.069332	3.800780E-5	572.688880	144.734874	25.519482	146.967437	0.256627	0.176319	0.144179	0.009384
0.157286	4.035931E-5	0.075109	3.816463E-5	620.406812	146.178120	26.940494	148.639944	0.239585	0.184299	0.157286	0.009398
0.170394	4.094424E-5	0.081367	3.832932E-5	672.098782	147.683079	28.438255	150.396231	0.223771	0.192563	0.170394	0.009535
0.183501	4.222049E-5	0.088146	3.850245E-5	728.097266	149.251955	30.016607	152.240411	0.209094	0.201114	0.183501	0.009832
0.399815	4.423634E-5	0.095491	3.868471E-5	788.767519	150.886660	31.679457	154.176432	0.195465	0.209955	0.399815	0.010301
0.599722	4.700636E-5	0.103447	3.887674E-5	854.490812	152.589214	33.430821	156.208476	0.182809	0.219090	0.599722	0.010946
0.799630	4.990021E-5	0.112066	3.907929E-5	925.681052	154.362420	35.275468	158.341768	0.171054	0.228524	0.799630	0.011620
0.999537	5.249269E-5	0.121404	3.929308E-5	1002.821176	156.207779	37.217893	160.580328	0.160129	0.238259	0.999537	0.012224
1.199440	5.502471E-5	0.131521	3.951892E-5	1086.371535	158.128190	39.263131	162.929795	0.149976	0.248299	1.199440	0.012814
1.399350	5.749255E-5	0.142478	3.975755E-5	1176.892129	160.125582	41.416424	165.395049	0.140535	0.258650	1.399350	0.013388
1.599260	5.981756E-5	0.154351	4.000993E-5	1274.941281	162.203078	43.683648	167.982438	0.131757	0.269315	1.599260	0.013930
1.799170	6.238425E-5	0.167212	4.027691E-5	1381.179946	164.362641	46.070688	170.697352	0.123588	0.280299	1.799170	0.014527
1.999070	6.480116E-5	0.181143	4.055944E-5	1496.262657	166.607186	48.583843	173.546375	0.115987	0.291607	1.999070	0.015090
2.198980	6.744637E-5	0.196235	4.085858E-5	1620.941830	168.938849	51.229559	176.535556	0.108909	0.303243	2.198980	0.015706
2.398890	6.985167E-5	0.212588	4.117546E-5	1755.986319	171.361470	54.015476	179.673106	0.102320	0.315214	2.398890	0.016266
2.598800	7.230470E-5	0.230302	4.151113E-5	1902.322994	173.876370	56.948505	182.964817	0.096180	0.327523	2.598800	0.016838
2.798700	7.450666E-5	0.249490	4.186684E-5	2060.803387	176.487974	60.037047	186.420095	0.090460	0.340176	2.798700	0.017350
2.998610	7.699036E-5	0.270277	4.224391E-5	2232.526765	179.198068	63.289269	190.045992	0.085126	0.353181	2.998610	0.017929
3.198520	7.949261E-5	0.292796	4.264374E-5	2418.522676	182.011225	66.714715	193.852881	0.080153	0.366542	3.198520	0.018511
3.398430	8.208269E-5	0.317195	4.306787E-5	2620.073295	184.928795	70.322057	197.848050	0.075512	0.380266	3.398430	0.019115
3.598330	8.441699E-5	0.343622	4.351777E-5	2838.350155	187.956166	74.122132	202.043586	0.071183	0.394359	3.598330	0.019658
3.798240	8.679094E-5	0.372252	4.399524E-5	3074.883872	191.095198	78.125214	206.448356	0.067140	0.408829	3.798240	0.020211
3.998150	8.914285E-5	0.403271	4.450215E-5	3331.090612	194.349710	82.342100	211.073521	0.063365	0.423680	3.998150	0.020759
4.198060	9.148204E-5	0.436875	4.504045E-5	3608.612125	197.724424	86.785606	215.932141	0.059838	0.438922	4.198060	0.021303
4.397960	9.385019E-5	0.473277	4.561221E-5	3909.306879	201.221856	91.467746	221.035255	0.056541	0.454562	4.397960	0.021855
4.597870	9.607204E-5	0.512710	4.621974E-5	4235.000360	204.847911	96.402978	226.398323	0.053459	0.470608	4.597870	0.022372
4.797780	9.838620E-5	0.555426	4.686549E-5	4587.926936	208.604295	101.604181	232.032673	0.050575	0.487067	4.797780	0.022911
4.997680	0.000101	0.601706	4.755228E-5	4970.147822	212.497751	107.087420	237.955898	0.047877	0.503946	4.997680	0.023489
5.197590	0.000104	0.651844	4.828298E-5	5384.294027	216.531325	112.868270	244.182434	0.045351	0.521256	5.197590	0.024115
5.397500	0.000106	0.706152	4.906059E-5	5832.902622	220.711302	118.964428	250.730960	0.042986	0.539005	5.397500	0.024661
5.597410	0.000108	0.764991	4.988872E-5	6318.975336	225.040959	125.392800	257.617522	0.040769	0.557200	5.597410	0.025230
5.797320	0.000111	0.828738	5.077110E-5	6845.465176	229.526900	132.172839	264.862714	0.038692	0.575849	5.797320	0.025810
5.997220	0.000114	0.897792	5.171167E-5	7415.848518	234.174346	139.324823	272.486753	0.036744	0.594962	5.997220	0.026451
6.197130	0.000116	0.972593	5.271479E-5	8033.754761	238.988654	146.869392	280.510597	0.034916	0.614545	6.197130	0.027080
6.397040	0.000119	1.053630	5.378548E-5	8703.064875	243.978077	154.830862	288.960028	0.033202	0.634610	6.397040	0.027737
6.596940	0.000122	1.141417	5.492892E-5	9428.285310	249.147476	163.232259	297.857743	0.031592	0.655163	6.596940	0.028309
6.796850	0.000124	1.236525	5.615105E-5	10213.881188	254.505027	172.099326	307.231162	0.030080	0.676212	6.796850	0.028889
6.996760	0.000126	1.339548	5.745803E-5	11064.978103	260.056659	181.457499	317.106118	0.028659	0.697761	6.996760	0.029457
7.196670	0.000129	1.451177	5.885724E-5	11986.810452	265.813371	191.337586	327.516137	0.027323	0.719819	7.196670	0.030012
7.396570	0.000131	1.572092	6.035595E-5	12985.621659	271.781461	201.768280	338.490179	0.026067	0.742392	7.396570	0.030575
7.596480	0.000134	1.703078	6.196279E-5	14067.520670	277.972607	212.783035	350.064837	0.024885	0.765482	7.596480	0.031209
7.796390	0.000137	1.844986	6.368730E-5	15239.694179	284.396536	224.416071	362.276086	0.023772	0.789096	7.796390	0.031863
7.996300	0.000140	1.998721	6.553980E-5	16509.628092	291.062975	236.701457	375.160279	0.022724	0.813231	7.996300	0.032583
8.196200	0.000143	2.165264	6.753176E-5	17885.213920	297.984519	249.676908	388.758706	0.021736	0.837886	8.196200	0.033231
8.396110	0.000145	2.345661	6.967572E-5	19375.262617	305.176523	263.385352	403.118536	0.020806	0.863059	8.396110	0.033699
8.596020	0.000147	2.541126	7.198659E-5	20989.680843	312.652028	277.868656	418.284928	0.019928	0.888747	8.596020	0.034313
8.795930	0.000151	2.752814	7.447908E-5	22738.637047	320.427931	293.172599	434.308913	0.019100	0.914941	8.795930	0.035082
8.995830	0.000153	2.982228	7.717259E-5	24633.478679	328.519097	309.341637	451.239455	0.018318	0.941625	8.995830	0.035642
