MicroRheology Analysis v9.2.8
10/03/18 5:18:45 PM

Correlation Mode:	Cross
Geometry:	Transmission
Multi-Tau Duration (s):	120
Echo Duration (s):	60
Wavelength (nm):	685.0
Temperature (°C):	25.00
Cuvette Thickness (mm):	5.00
Absorption Length (mm):	98.229
Solvent:	Water
Solvent Refractive Index:	1.329
Particle Radius (nm):	300.0
Mean Count Rate (kHz):	605.6
l* (microns):	765.08



Lag Time (s)	Mean Square Displacement (micron^2)	Fit Lag Time (s)	Mean Square Displacement Fit (micron^2)	Frequency(rad/s)	G1 (Pa)	G2 (Pa)	G* (Pa)	Complex Viscosity (Pa s)	Loss Tangent (-)	Time (s)	Creep Compliance (1/Pa)

6.412500E-6	3.468470E-6	6.412608E-6	3.537194E-6	0.079400	-0.569804	7.463563	7.485282	94.272603	-13.098469	6.412500E-6	0.000794
7.212500E-6	3.849151E-6	6.950107E-6	3.716724E-6	0.086057	-0.429133	8.177861	8.189113	95.158780	-19.056690	7.212500E-6	0.000881
8.012500E-6	4.174224E-6	7.532792E-6	3.903434E-6	0.093271	-0.253536	8.943885	8.947478	95.930030	-35.276588	8.012500E-6	0.000956
8.812500E-6	4.443584E-6	8.164224E-6	4.097374E-6	0.101090	-0.038640	9.762927	9.763003	96.577262	-252.666714	8.812500E-6	0.001017
9.612500E-6	4.605957E-6	8.848722E-6	4.298719E-6	0.109565	0.220115	10.635974	10.638251	97.095355	48.319982	9.612500E-6	0.001055
1.041250E-5	4.829796E-6	9.590523E-6	4.507506E-6	0.118750	0.527547	11.563960	11.575987	97.482300	21.920227	1.041250E-5	0.001106
1.121250E-5	4.955312E-6	1.039448E-5	4.723831E-6	0.128706	0.888631	12.547029	12.578458	97.730390	14.119501	1.121250E-5	0.001135
1.201250E-5	5.186210E-6	1.126579E-5	4.947763E-6	0.139495	1.308500	13.585323	13.648193	97.840016	10.382360	1.201250E-5	0.001187
1.281250E-5	5.367893E-6	1.221039E-5	5.179425E-6	0.151189	1.792464	14.678442	14.787480	97.807735	8.188975	1.281250E-5	0.001229
1.441250E-5	5.609850E-6	1.323382E-5	5.418715E-6	0.163865	2.345738	15.825050	15.997959	97.628873	6.746300	1.441250E-5	0.001284
1.601250E-5	5.839381E-6	1.434341E-5	5.665820E-6	0.177599	2.973826	17.024444	17.282226	97.310224	5.724761	1.601250E-5	0.001337
1.761250E-5	6.112341E-6	1.554576E-5	5.920608E-6	0.192490	3.681964	18.273999	18.641242	96.842699	4.963112	1.761250E-5	0.001399
1.921250E-5	6.356086E-6	1.684910E-5	6.183161E-6	0.208625	4.475498	19.571875	20.077061	96.235272	4.373117	1.921250E-5	0.001455
2.081250E-5	6.637761E-6	1.826154E-5	6.453376E-6	0.226117	5.359379	20.914375	21.590138	95.482237	3.902388	2.081250E-5	0.001520
2.241250E-5	6.883412E-6	1.979244E-5	6.731245E-6	0.245070	6.338602	22.298507	23.181917	94.592889	3.517890	2.241250E-5	0.001576
2.401250E-5	7.219555E-6	2.145168E-5	7.016683E-6	0.265617	7.417710	23.719721	24.852517	93.565407	3.197715	2.401250E-5	0.001653
2.561250E-5	7.635881E-6	2.324987E-5	7.309573E-6	0.287883	8.600939	25.173488	26.602268	92.406634	2.926830	2.561250E-5	0.001748
2.881250E-5	8.095164E-6	2.519883E-5	7.609832E-6	0.312015	9.892231	26.654690	28.431122	91.120979	2.694507	2.881250E-5	0.001853
3.201250E-5	8.515593E-6	2.731158E-5	7.917373E-6	0.338172	11.295005	28.157614	30.338562	89.713396	2.492926	3.201250E-5	0.001950
3.521250E-5	8.888520E-6	2.960124E-5	8.231954E-6	0.366523	12.812002	29.675913	32.323478	88.189381	2.316259	3.521250E-5	0.002035
3.841250E-5	9.184253E-6	3.208281E-5	8.553418E-6	0.397250	14.445432	31.203003	34.384559	86.556412	2.160060	3.841250E-5	0.002103
4.161250E-5	9.526089E-6	3.477225E-5	8.881546E-6	0.430552	16.197083	32.732141	36.520385	84.822314	2.020866	4.161250E-5	0.002181
4.481250E-5	9.902206E-6	3.768732E-5	9.216154E-6	0.466649	18.067462	34.255423	38.728119	82.992040	1.895973	4.481250E-5	0.002267
4.801250E-5	1.030090E-5	4.084616E-5	9.556909E-6	0.505762	20.057324	35.766234	41.006338	81.078326	1.783201	4.801250E-5	0.002358
5.121250E-5	1.068798E-5	4.427054E-5	9.903681E-6	0.548166	22.165857	37.256145	43.351419	79.084452	1.680790	5.121250E-5	0.002447
5.761250E-5	1.113721E-5	4.798186E-5	1.025609E-5	0.594123	24.391412	38.717273	45.759898	77.020955	1.587332	5.761250E-5	0.002550
6.401250E-5	1.161189E-5	5.200405E-5	1.061382E-5	0.643926	26.731880	40.141868	48.228238	74.897178	1.501648	6.401250E-5	0.002659
7.041250E-5	1.206622E-5	5.636440E-5	1.097664E-5	0.697901	29.184867	41.522548	50.753113	72.722476	1.422742	7.041250E-5	0.002763
7.681250E-5	1.252057E-5	6.108921E-5	1.134403E-5	0.756416	31.746108	42.850885	53.329295	70.502627	1.349800	7.681250E-5	0.002867
8.321250E-5	1.295027E-5	6.621064E-5	1.171574E-5	0.819829	34.410682	44.119373	55.951891	68.248254	1.282142	8.321250E-5	0.002965
8.961250E-5	1.327447E-5	7.176092E-5	1.209132E-5	0.888545	37.173993	45.321400	58.616849	65.969449	1.219170	8.961250E-5	0.003039
9.601250E-5	1.367918E-5	7.777733E-5	1.247044E-5	0.963036	40.029698	46.449529	61.318312	63.671890	1.160377	9.601250E-5	0.003132
0.000102	1.411297E-5	8.429681E-5	1.285257E-5	1.043766	42.971570	47.497813	64.051527	61.365784	1.105331	0.000102	0.003231
0.000115	1.455445E-5	9.136311E-5	1.323735E-5	1.131283	45.991582	48.459600	66.809868	59.056737	1.053662	0.000115	0.003332
0.000128	1.508240E-5	9.902222E-5	1.362434E-5	1.226122	49.081781	49.329804	69.587720	56.754333	1.005053	0.000128	0.003453
0.000141	1.560728E-5	0.000107	1.401312E-5	1.328902	52.234298	50.103874	72.379694	54.465779	0.959214	0.000141	0.003573
0.000154	1.603106E-5	0.000116	1.440308E-5	1.440310	55.439749	50.777215	75.179062	52.196440	0.915899	0.000154	0.003670
0.000166	1.643915E-5	0.000126	1.479392E-5	1.561037	58.689706	51.346992	77.980735	49.954443	0.874889	0.000166	0.003764
0.000179	1.676706E-5	0.000137	1.518504E-5	1.691905	61.974736	51.810150	80.778460	47.744077	0.835988	0.000179	0.003839
0.000192	1.710099E-5	0.000148	1.557598E-5	1.833755	65.284757	52.164595	83.565809	45.570861	0.799032	0.000192	0.003915
0.000205	1.749216E-5	0.000161	1.596633E-5	1.987482	68.610250	52.409354	86.337169	43.440472	0.763871	0.000205	0.004005
0.000230	1.794083E-5	0.000174	1.635549E-5	2.154094	71.941650	52.543946	89.086853	41.356996	0.730369	0.000230	0.004108
0.000256	1.841108E-5	0.000189	1.674305E-5	2.334672	75.269677	52.568759	91.809578	39.324394	0.698406	0.000256	0.004215
0.000282	1.886556E-5	0.000204	1.712848E-5	2.530409	78.584492	52.484615	94.499509	37.345554	0.667875	0.000282	0.004319
0.000307	1.923572E-5	0.000221	1.751131E-5	2.742538	81.877082	52.293495	97.151769	35.424035	0.638683	0.000307	0.004404
0.000333	1.956175E-5	0.000240	1.789120E-5	2.972453	85.138290	51.997706	99.761164	33.561896	0.610744	0.000333	0.004479
0.000358	1.983351E-5	0.000260	1.826754E-5	3.221612	88.360013	51.600552	102.323550	31.761599	0.583981	0.000358	0.004541
0.000384	2.012733E-5	0.000282	1.863997E-5	3.491665	91.534686	51.105652	104.835044	30.024371	0.558320	0.000384	0.004608
0.000410	2.045154E-5	0.000306	1.900803E-5	3.784406	94.654247	50.517023	107.291174	28.350864	0.533701	0.000410	0.004683
0.000461	2.082630E-5	0.000331	1.937130E-5	4.101675	97.711241	49.839575	109.688057	26.742260	0.510070	0.000461	0.004768
0.000512	2.121965E-5	0.000359	1.972941E-5	4.445477	100.700135	49.078737	112.023389	25.199410	0.487375	0.000512	0.004858
0.000563	2.159696E-5	0.000389	2.008190E-5	4.818153	103.615000	48.239741	114.294098	23.721557	0.465567	0.000563	0.004945
0.000614	2.190372E-5	0.000422	2.042855E-5	5.222092	106.450269	47.328572	116.497440	22.308578	0.444607	0.000614	0.005015
0.000666	2.217974E-5	0.000457	2.076894E-5	5.659850	109.201734	46.351562	118.631724	20.960226	0.424458	0.000666	0.005078
0.000717	2.240318E-5	0.000495	2.110277E-5	6.134316	111.865656	45.314973	120.695368	19.675441	0.405084	0.000717	0.005129
0.000768	2.263117E-5	0.000537	2.142981E-5	6.648577	114.438898	44.225325	122.687166	18.453146	0.386454	0.000768	0.005182
0.000819	2.288710E-5	0.000582	2.174971E-5	7.205976	116.918940	43.089241	124.606265	17.292073	0.368539	0.000819	0.005240
0.000922	2.318002E-5	0.000631	2.206225E-5	7.810125	119.303489	41.913444	126.451806	16.190754	0.351318	0.000922	0.005307
0.001024	2.349150E-5	0.000684	2.236729E-5	8.464811	121.591884	40.704734	128.224263	15.147918	0.334765	0.001024	0.005379
0.001126	2.380094E-5	0.000741	2.266454E-5	9.174437	123.783304	39.469516	129.923628	14.161482	0.318860	0.001126	0.005449
0.001229	2.405512E-5	0.000803	2.295396E-5	9.943509	125.878056	38.214378	131.550840	13.229820	0.303583	0.001229	0.005508
0.001331	2.427980E-5	0.000870	2.323541E-5	10.777135	127.876565	36.945574	133.106691	12.350842	0.288916	0.001331	0.005559
0.001434	2.446470E-5	0.000943	2.350877E-5	11.680661	129.779659	35.669418	134.592226	11.522655	0.274846	0.001434	0.005601
0.001536	2.465161E-5	0.001022	2.377404E-5	12.659813	131.589077	34.391988	136.009169	10.743379	0.261359	0.001536	0.005644
0.001638	2.485943E-5	0.001108	2.403111E-5	13.720997	133.307083	33.118928	137.359534	10.010900	0.248441	0.001638	0.005692
0.001843	2.510156E-5	0.001201	2.428003E-5	14.871209	134.936417	31.855593	138.645647	9.323092	0.236079	0.001843	0.005747
0.002048	2.536303E-5	0.001302	2.452088E-5	16.118121	136.479274	30.607268	139.869214	8.677762	0.224263	0.002048	0.005807
0.002253	2.562036E-5	0.001411	2.475365E-5	17.469331	137.938853	29.379212	141.032852	8.073168	0.212987	0.002253	0.005866
0.002458	2.583328E-5	0.001529	2.497846E-5	18.933567	139.319207	28.175913	142.139803	7.507291	0.202240	0.002458	0.005915
0.002662	2.602142E-5	0.001657	2.519545E-5	20.520846	140.623798	27.001568	143.192658	6.977912	0.192013	0.002662	0.005958
0.002867	2.616618E-5	0.001796	2.540475E-5	22.241161	141.856546	25.860414	144.194454	6.483225	0.182300	0.002867	0.005991
0.003072	2.631398E-5	0.001947	2.560660E-5	24.105592	143.021827	24.756178	145.148584	6.021366	0.173094	0.003072	0.006025
0.003277	2.647524E-5	0.002110	2.580117E-5	26.126522	144.123930	23.692260	146.058311	5.590423	0.164388	0.003277	0.006062
0.003686	2.666159E-5	0.002287	2.598867E-5	28.317038	145.166888	22.672012	146.926667	5.188631	0.156179	0.003686	0.006104
0.004096	2.685820E-5	0.002479	2.616945E-5	30.690538	146.155846	21.698338	147.757738	4.814439	0.148460	0.004096	0.006149
0.004506	2.704753E-5	0.002686	2.634374E-5	33.263641	147.095057	20.773721	148.554715	4.465979	0.141227	0.004506	0.006193
0.004915	2.719790E-5	0.002912	2.651188E-5	36.052266	147.989188	19.900723	149.321259	4.141800	0.134474	0.004915	0.006227
0.005325	2.733375E-5	0.003156	2.667424E-5	39.074527	148.842837	19.081501	150.060967	3.840378	0.128199	0.005325	0.006258
0.005734	2.743706E-5	0.003420	2.683114E-5	42.349791	149.661047	18.317879	150.777895	3.560298	0.122396	0.005734	0.006282
0.006144	2.755652E-5	0.003707	2.698302E-5	45.900736	150.447842	17.611610	151.475153	3.300059	0.117061	0.006144	0.006309
0.006554	2.771606E-5	0.004018	2.713027E-5	49.748134	151.208238	16.964343	152.156893	3.058545	0.112192	0.006554	0.006346
0.007373	2.792448E-5	0.004355	2.727331E-5	53.918757	151.946484	16.377333	152.826539	2.834385	0.107784	0.007373	0.006393
0.008192	2.817396E-5	0.004720	2.741260E-5	58.438430	152.667278	15.851821	153.488039	2.626491	0.103832	0.008192	0.006451
0.009011	2.840995E-5	0.005115	2.754865E-5	63.337926	153.374794	15.388842	154.144879	2.433690	0.100335	0.009011	0.006505
0.009830	2.859623E-5	0.005544	2.768193E-5	68.648035	154.073289	14.989416	154.800714	2.254991	0.097288	0.009830	0.006547
0.010650	2.875697E-5	0.006009	2.781293E-5	74.403124	154.766898	14.654394	155.459139	2.089417	0.094687	0.010650	0.006584
0.011469	2.887953E-5	0.006513	2.794221E-5	80.640240	155.459779	14.384531	156.123853	1.936054	0.092529	0.011469	0.006612
0.012288	2.903697E-5	0.007059	2.807034E-5	87.400680	156.155668	14.180519	156.798214	1.794016	0.090810	0.012288	0.006648
0.013107	2.924773E-5	0.007650	2.819784E-5	94.726213	156.858826	14.043011	157.486182	1.662541	0.089526	0.013107	0.006696
0.014746	2.946565E-5	0.008292	2.832532E-5	102.668791	157.572514	13.972587	158.190804	1.540788	0.088674	0.014746	0.006746
0.016384	2.969987E-5	0.008987	2.845339E-5	111.274861	158.300656	13.969884	158.915875	1.428138	0.088249	0.016384	0.006800
0.018022	2.995412E-5	0.009740	2.858264E-5	120.603844	159.046564	14.035457	159.664659	1.323877	0.088247	0.018022	0.006858
0.019661	3.017746E-5	0.010557	2.871376E-5	130.713752	159.813692	14.169901	160.440651	1.227420	0.088665	0.019661	0.006909
0.021299	3.040860E-5	0.011442	2.884731E-5	141.670817	160.605467	14.373850	161.247398	1.138184	0.089498	0.021299	0.006962
0.022938	3.058720E-5	0.012401	2.898405E-5	153.548197	161.424874	14.647931	162.088099	1.055617	0.090741	0.022938	0.007003
0.024576	3.074062E-5	0.013440	2.912461E-5	166.419596	162.275127	14.992836	162.966260	0.979249	0.092391	0.024576	0.007038
0.026214	3.091630E-5	0.014567	2.926974E-5	180.370250	163.159287	15.409354	163.885330	0.908605	0.094444	0.026214	0.007078
0.029491	3.116153E-5	0.015788	2.942014E-5	195.491745	164.080258	15.898326	164.848682	0.843251	0.096894	0.029491	0.007135
0.032768	3.150037E-5	0.017112	2.957657E-5	211.881869	165.040718	16.460596	165.859548	0.782793	0.099737	0.032768	0.007212
0.036045	3.185942E-5	0.018546	2.973975E-5	229.643361	166.043604	17.097169	166.921513	0.726873	0.102968	0.036045	0.007294
0.039322	3.220537E-5	0.020101	2.991053E-5	248.894596	167.091658	17.809210	168.038061	0.675137	0.106583	0.039322	0.007374
0.042598	3.255626E-5	0.021786	3.008967E-5	269.761221	168.187465	18.597920	169.212606	0.627268	0.110579	0.042598	0.007454
0.045875	3.277729E-5	0.023613	3.027810E-5	292.377048	169.333525	19.464560	170.448560	0.582975	0.114948	0.045875	0.007505
0.049152	3.299196E-5	0.025592	3.047658E-5	316.885924	170.532634	20.410669	171.749744	0.541992	0.119688	0.049152	0.007554
0.052429	3.328255E-5	0.027738	3.068607E-5	343.452571	171.787067	21.437825	173.119545	0.504057	0.124793	0.052429	0.007620
0.058982	3.364531E-5	0.030063	3.090751E-5	372.242653	173.099494	22.547770	174.561843	0.468946	0.130259	0.058982	0.007703
0.065536	3.413932E-5	0.032583	3.114188E-5	403.447041	174.472488	23.742554	176.080544	0.436440	0.136082	0.065536	0.007816
0.072090	3.470806E-5	0.035314	3.139009E-5	437.270822	175.908173	25.024122	177.679183	0.406337	0.142257	0.072090	0.007947
0.078643	3.520816E-5	0.038275	3.165333E-5	473.923252	177.409457	26.394845	179.362213	0.378463	0.148779	0.078643	0.008061
0.085197	3.576585E-5	0.041484	3.193261E-5	513.654592	178.978650	27.857309	181.133616	0.352637	0.155646	0.085197	0.008189
0.091750	3.613664E-5	0.044962	3.222907E-5	556.718371	180.617999	29.413976	182.997387	0.328707	0.162852	0.091750	0.008274
0.098304	3.647363E-5	0.048731	3.254394E-5	603.386067	182.330309	31.067799	184.958238	0.306534	0.170393	0.098304	0.008351
0.104858	3.691027E-5	0.052816	3.287847E-5	653.969469	184.117909	32.821903	187.020539	0.285977	0.178266	0.104858	0.008451
0.117965	3.753516E-5	0.057243	3.323392E-5	708.790084	185.983604	34.679693	189.189276	0.266919	0.186466	0.117965	0.008594
0.131072	3.840172E-5	0.062042	3.361181E-5	768.211240	187.930055	36.644920	191.469465	0.249241	0.194992	0.131072	0.008792
0.144179	3.946933E-5	0.067244	3.401362E-5	832.621311	189.959363	38.721115	193.865635	0.232838	0.203839	0.144179	0.009037
0.157286	3.956788E-5	0.072881	3.444075E-5	902.417292	192.074631	40.912381	196.383519	0.217619	0.213003	0.157286	0.009059
0.170394	4.106648E-5	0.078990	3.489490E-5	978.063977	194.279004	43.223554	199.029161	0.203493	0.222482	0.170394	0.009402
0.183501	4.453610E-5	0.085612	3.537786E-5	1060.067224	196.574624	45.659075	201.807666	0.190373	0.232273	0.183501	0.010197
0.399815	5.134921E-5	0.092789	3.589153E-5	1148.930978	198.964991	48.224026	204.725730	0.178188	0.242374	0.399815	0.011757
0.599722	6.010111E-5	0.100568	3.643783E-5	1245.252024	201.452744	50.923776	207.789410	0.166865	0.252783	0.599722	0.013761
0.799629	7.010277E-5	0.108999	3.701880E-5	1349.639129	204.041004	53.763877	211.005417	0.156342	0.263495	0.799629	0.016050
0.999537	7.947966E-5	0.118136	3.763677E-5	1462.765718	206.733800	56.750978	214.381756	0.146559	0.274512	0.999537	0.018197
1.199440	8.823632E-5	0.128039	3.829406E-5	1585.400967	209.533641	59.891388	217.925045	0.137457	0.285832	1.199440	0.020202
1.399350	9.687241E-5	0.138774	3.899341E-5	1718.303643	212.444442	63.191971	221.643556	0.128990	0.297452	1.399350	0.022180
1.599260	0.000106	0.150408	3.973742E-5	1862.351810	215.470137	66.660521	225.546015	0.121108	0.309372	1.599260	0.024301
1.799170	0.000115	0.163017	4.052904E-5	2018.497855	218.613569	70.304393	229.640153	0.113768	0.321592	1.799170	0.026277
1.999070	0.000124	0.176683	4.137143E-5	2187.707485	221.879369	74.132031	233.935915	0.106932	0.334110	1.999070	0.028437
2.198980	0.000133	0.191494	4.226800E-5	2371.109082	225.271531	78.152550	238.443040	0.100562	0.346926	2.198980	0.030542
2.398890	0.000142	0.207548	4.322255E-5	2569.889916	228.793470	82.374719	243.170817	0.094623	0.360040	2.398890	0.032520
2.598790	0.000151	0.224948	4.423889E-5	2785.286337	232.451339	86.809463	248.132038	0.089087	0.373452	2.598790	0.034669
2.798700	0.000160	0.243803	4.532115E-5	3018.788573	236.248730	91.467391	253.337218	0.083920	0.387166	2.798700	0.036681
2.998610	0.000169	0.264242	4.647431E-5	3271.858277	240.190917	96.359743	258.798911	0.079098	0.401180	2.998610	0.038773
3.198520	0.000179	0.286396	4.770322E-5	3546.155308	244.282716	101.498486	264.529749	0.074596	0.415496	3.198520	0.040897
3.398420	0.000187	0.310404	4.901299E-5	3843.441863	248.529420	106.896267	270.543314	0.070391	0.430115	3.398420	0.042882
3.598330	0.000197	0.336422	5.040960E-5	4165.638842	252.937414	112.567308	276.855078	0.066462	0.445040	3.598330	0.045065
3.798240	0.000206	0.364626	5.189960E-5	4514.892188	257.510649	118.524822	283.478161	0.062787	0.460272	3.798240	0.047122
3.998150	0.000215	0.395193	5.348970E-5	4893.331187	262.257242	124.784978	290.430976	0.059352	0.475811	3.998150	0.049121
4.198050	0.000224	0.428326	5.518748E-5	5303.536377	267.183178	131.364494	297.730550	0.056138	0.491665	4.198050	0.051295
4.397960	0.000233	0.464232	5.700077E-5	5748.153080	272.294765	138.280202	305.394586	0.053129	0.507833	4.397960	0.053303
4.597870	0.000242	0.503149	5.893856E-5	6230.024436	277.600210	145.551283	313.443858	0.050312	0.524320	4.597870	0.055480
4.797770	0.000251	0.545329	6.101047E-5	6752.365048	283.104998	153.195996	321.896650	0.047672	0.541128	4.797770	0.057562
4.997680	0.000260	0.591050	6.322717E-5	7318.400174	288.818653	161.235828	330.776672	0.045198	0.558260	4.997680	0.059633
5.197590	0.000269	0.640600	6.559974E-5	7931.923536	294.749321	169.693448	340.107378	0.042878	0.575721	5.197590	0.061691
5.397500	0.000280	0.694295	6.814037E-5	8596.928709	300.903917	178.590724	349.911152	0.040702	0.593514	5.397500	0.063994
5.597400	0.000289	0.752501	7.086351E-5	9317.551742	307.294582	187.954746	360.217915	0.038660	0.611644	5.597400	0.066255
5.797310	0.000296	0.815580	7.378337E-5	10098.743951	313.928232	197.810687	371.052561	0.036742	0.630114	5.797310	0.067812
5.997220	0.000308	0.883952	7.691679E-5	10945.336662	320.815680	208.186419	382.445141	0.034941	0.648928	5.997220	0.070550
6.197130	0.000317	0.958069	8.028196E-5	11862.844662	327.967604	219.112101	394.427258	0.033249	0.668091	6.197130	0.072494
6.397030	0.000325	1.038383	8.389722E-5	12857.216490	335.397395	230.621932	407.035487	0.031658	0.687608	6.397030	0.074501
6.596940	0.000336	1.125435	8.778496E-5	13935.162102	343.113607	242.747383	420.301367	0.030161	0.707484	6.596940	0.076946
6.796850	0.000343	1.219767	9.196777E-5	15103.311595	351.131373	255.526037	434.265814	0.028753	0.727722	6.796850	0.078455
6.996760	0.000353	1.322024	9.647310E-5	16369.501989	359.461707	268.994863	448.966541	0.027427	0.748327	6.996760	0.080907
7.196660	0.000364	1.432867	0.000101	17741.694671	368.122361	283.198151	464.451575	0.026179	0.769304	7.196660	0.083236
7.396570	0.000371	1.552974	0.000107	19229.269856	377.122879	298.175074	480.759857	0.025001	0.790658	7.396570	0.084882
7.596480	0.000382	1.683154	0.000112	20841.211367	386.482653	313.974134	497.944372	0.023892	0.812389	7.596480	0.087439
7.796380	0.000389	1.824264	0.000118	22588.385805	396.217562	330.645193	516.056780	0.022846	0.834504	7.796380	0.088991
7.996290	0.000399	1.977215	0.000125	24482.105384	406.342052	348.236910	535.147464	0.021859	0.857004	7.996290	0.091391
8.196200	0.000410	2.142940	0.000132	26534.123555	416.880285	366.810486	555.282905	0.020927	0.879894	8.196200	0.093758
