MicroRheology Analysis v9.2.8
10/11/18 8:16:09 PM

Correlation Mode:	Cross
Geometry:	Transmission
Multi-Tau Duration (s):	120
Echo Duration (s):	60
Wavelength (nm):	685.0
Temperature (°C):	24.98
Cuvette Thickness (mm):	5.00
Absorption Length (mm):	103.565
Solvent:	Water
Solvent Refractive Index:	1.329
Particle Radius (nm):	300.0
Mean Count Rate (kHz):	617.9
l* (microns):	747.01



Lag Time (s)	Mean Square Displacement (micron^2)	Fit Lag Time (s)	Mean Square Displacement Fit (micron^2)	Frequency(rad/s)	G1 (Pa)	G2 (Pa)	G* (Pa)	Complex Viscosity (Pa s)	Loss Tangent (-)	Time (s)	Creep Compliance (1/Pa)

1.441250E-5	5.662120E-6	1.441257E-5	5.422537E-6	0.079401	-0.808136	7.962112	8.003019	100.792225	-9.852441	1.441250E-5	0.001296
1.601250E-5	5.915817E-6	1.561304E-5	5.706170E-6	0.086015	-0.661837	8.742170	8.767187	101.926636	-13.208953	1.601250E-5	0.001355
1.761250E-5	6.173860E-6	1.691347E-5	5.996731E-6	0.093179	-0.475562	9.578921	9.590719	102.928158	-20.142324	1.761250E-5	0.001414
1.921250E-5	6.436254E-6	1.832228E-5	6.294033E-6	0.100939	-0.244239	10.473725	10.476573	103.791255	-42.883018	1.921250E-5	0.001474
2.081250E-5	6.701693E-6	1.984839E-5	6.597826E-6	0.109346	0.037474	11.427355	11.427417	104.506623	304.942835	2.081250E-5	0.001535
2.241250E-5	6.943664E-6	2.150140E-5	6.907841E-6	0.118455	0.375083	12.440091	12.445744	105.067634	33.166200	2.241250E-5	0.001590
2.401250E-5	7.260771E-6	2.329235E-5	7.223914E-6	0.128321	0.774265	13.511842	13.534007	105.470046	17.451185	2.401250E-5	0.001663
2.561250E-5	7.640192E-6	2.523265E-5	7.545764E-6	0.139008	1.240898	14.642243	14.694730	105.711220	11.799717	2.561250E-5	0.001749
2.881250E-5	8.067774E-6	2.733422E-5	7.873034E-6	0.150588	1.780826	15.829777	15.929632	105.783125	8.889010	2.881250E-5	0.001847
3.201250E-5	8.481417E-6	2.961090E-5	8.205506E-6	0.163129	2.399964	17.073042	17.240899	105.688616	7.113875	3.201250E-5	0.001942
3.521250E-5	8.857525E-6	3.207684E-5	8.542827E-6	0.176717	3.104153	18.369500	18.629930	105.422549	5.917716	3.521250E-5	0.002028
3.841250E-5	9.142399E-6	3.474898E-5	8.884844E-6	0.191435	3.899142	19.716416	20.098268	104.987460	5.056604	3.841250E-5	0.002093
4.161250E-5	9.459858E-6	3.764316E-5	9.231082E-6	0.207381	4.790465	21.110136	21.646856	104.382260	4.406699	4.161250E-5	0.002166
4.481250E-5	9.806133E-6	4.077822E-5	9.581267E-6	0.224655	5.783182	22.546121	23.276012	103.607742	3.898567	4.481250E-5	0.002245
4.801250E-5	1.018895E-5	4.417528E-5	9.935183E-6	0.243365	6.882274	24.019984	24.986503	102.670953	3.490123	4.801250E-5	0.002333
5.121250E-5	1.056802E-5	4.785413E-5	1.029230E-5	0.263635	8.092225	25.526163	26.778146	101.572757	3.154406	5.121250E-5	0.002420
5.761250E-5	1.101897E-5	5.184047E-5	1.065248E-5	0.285594	9.416929	27.058657	28.650471	100.318768	2.873406	5.761250E-5	0.002523
6.401250E-5	1.148599E-5	5.615804E-5	1.101523E-5	0.309383	10.859564	28.610694	30.602319	98.913985	2.634608	6.401250E-5	0.002630
7.041250E-5	1.194273E-5	6.083558E-5	1.138030E-5	0.335150	12.422929	30.175580	32.632726	97.367555	2.429023	7.041250E-5	0.002735
7.681250E-5	1.239052E-5	6.590263E-5	1.174729E-5	0.363064	14.109116	31.745904	34.740028	95.685645	2.250028	7.681250E-5	0.002837
8.321250E-5	1.281671E-5	7.139168E-5	1.211588E-5	0.393306	15.919212	33.313683	36.921847	93.875701	2.092672	8.321250E-5	0.002935
8.961250E-5	1.314744E-5	7.733775E-5	1.248570E-5	0.426065	17.853747	34.871097	39.175882	91.948195	1.953153	8.961250E-5	0.003010
9.601250E-5	1.352902E-5	8.377973E-5	1.285644E-5	0.461556	19.912048	36.409502	41.498692	89.910501	1.828516	9.601250E-5	0.003098
0.000102	1.395618E-5	9.075775E-5	1.322768E-5	0.499998	22.092691	37.920598	43.886885	87.774130	1.716432	0.000102	0.003196
0.000115	1.439284E-5	9.831765E-5	1.359914E-5	0.541638	24.394029	39.396537	46.337412	85.550590	1.615007	0.000115	0.003296
0.000128	1.490710E-5	0.000107	1.397038E-5	0.586755	26.812545	40.828264	48.845263	83.246469	1.522730	0.000128	0.003413
0.000141	1.542054E-5	0.000115	1.434112E-5	0.635622	29.344556	42.208142	51.406519	80.875898	1.438364	0.000141	0.003531
0.000154	1.584107E-5	0.000125	1.471099E-5	0.688565	31.985266	43.528010	54.016154	78.447474	1.360877	0.000154	0.003627
0.000166	1.624008E-5	0.000135	1.507972E-5	0.745917	34.729220	44.780435	56.669269	75.972642	1.289417	0.000166	0.003719
0.000179	1.656396E-5	0.000147	1.544681E-5	0.808051	37.569687	45.957881	59.359988	73.460662	1.223270	0.000179	0.003793
0.000192	1.687965E-5	0.000159	1.581210E-5	0.875353	40.499610	47.053880	62.082896	70.923229	1.161835	0.000192	0.003865
0.000205	1.725715E-5	0.000172	1.617520E-5	0.948257	43.511715	48.062552	64.832694	68.370379	1.104589	0.000205	0.003951
0.000230	1.767645E-5	0.000186	1.653571E-5	1.027242	46.597297	48.977992	67.602897	65.810131	1.051091	0.000230	0.004047
0.000256	1.812392E-5	0.000202	1.689344E-5	1.112795	49.748110	49.795908	70.388258	63.253588	1.000961	0.000256	0.004150
0.000282	1.856740E-5	0.000219	1.724809E-5	1.205488	52.954857	50.511888	73.182428	60.707744	0.953867	0.000282	0.004251
0.000307	1.893206E-5	0.000237	1.759930E-5	1.305904	56.207409	51.122425	75.978781	58.180983	0.909532	0.000307	0.004335
0.000333	1.925554E-5	0.000257	1.794676E-5	1.414664	59.496621	51.625489	78.772070	55.682538	0.867705	0.000333	0.004409
0.000358	1.952997E-5	0.000278	1.829027E-5	1.532490	62.812895	52.019196	81.556462	53.218261	0.828161	0.000358	0.004472
0.000384	1.981301E-5	0.000301	1.862954E-5	1.660143	66.145766	52.302358	84.325554	50.794146	0.790714	0.000384	0.004537
0.000410	2.013230E-5	0.000326	1.896429E-5	1.798411	69.485874	52.475241	87.074322	48.417355	0.755193	0.000410	0.004610
0.000461	2.049084E-5	0.000354	1.929432E-5	1.948209	72.823184	52.538169	89.796856	46.091996	0.721448	0.000461	0.004692
0.000512	2.086201E-5	0.000383	1.961945E-5	2.110471	76.148321	52.492751	92.488138	43.823466	0.689349	0.000512	0.004777
0.000563	2.121865E-5	0.000415	1.993938E-5	2.286243	79.452709	52.341198	95.143754	41.615771	0.658772	0.000563	0.004858
0.000614	2.150520E-5	0.000450	2.025390E-5	2.476688	82.726964	52.085958	97.758363	39.471407	0.629613	0.000614	0.004924
0.000666	2.176880E-5	0.000487	2.056297E-5	2.682981	85.962389	51.730646	100.327424	37.394006	0.601782	0.000666	0.004984
0.000717	2.199466E-5	0.000528	2.086628E-5	2.906422	89.152270	51.279569	102.848050	35.386480	0.575191	0.000717	0.005036
0.000768	2.222755E-5	0.000572	2.116372E-5	3.148537	92.288206	50.736657	105.315342	33.448973	0.549763	0.000768	0.005089
0.000819	2.247418E-5	0.000619	2.145519E-5	3.410768	95.363766	50.107411	107.726508	31.584235	0.525434	0.000819	0.005146
0.000922	2.274751E-5	0.000671	2.174060E-5	3.694836	98.373206	49.397088	110.078881	29.792633	0.502140	0.000922	0.005209
0.001024	2.303106E-5	0.000727	2.201975E-5	4.002591	101.310565	48.611272	112.369419	28.074173	0.479824	0.001024	0.005273
0.001126	2.331456E-5	0.000787	2.229264E-5	4.335944	104.171742	47.756201	114.596713	26.429475	0.458437	0.001126	0.005338
0.001229	2.356294E-5	0.000853	2.255921E-5	4.697134	106.951790	46.837766	116.758133	24.857315	0.437933	0.001229	0.005395
0.001331	2.378875E-5	0.000924	2.281936E-5	5.088352	109.647628	45.862679	118.852798	23.357817	0.418273	0.001331	0.005447
0.001434	2.396681E-5	0.001001	2.307309E-5	5.512182	112.256204	44.837214	120.879407	21.929503	0.399419	0.001434	0.005488
0.001536	2.414165E-5	0.001084	2.332037E-5	5.971288	114.775637	43.767979	122.837628	20.571379	0.381335	0.001536	0.005528
0.001638	2.433805E-5	0.001174	2.356129E-5	6.468678	117.203722	42.661372	124.726521	19.281608	0.363993	0.001638	0.005573
0.001843	2.456133E-5	0.001272	2.379580E-5	7.007386	119.540124	41.524058	126.546785	18.059056	0.347365	0.001843	0.005624
0.002048	2.480609E-5	0.001378	2.402399E-5	7.591016	121.784408	40.362103	128.298642	16.901380	0.331423	0.002048	0.005680
0.002253	2.504429E-5	0.001493	2.424592E-5	8.223280	123.936838	39.181736	129.982877	15.806695	0.316143	0.002253	0.005734
0.002458	2.524484E-5	0.001617	2.446166E-5	8.908272	125.997719	37.988979	131.600106	14.772799	0.301505	0.002458	0.005780
0.002662	2.543003E-5	0.001752	2.467134E-5	9.650253	127.968570	36.789750	133.151945	13.797767	0.287491	0.002662	0.005823
0.002867	2.558713E-5	0.001898	2.487510E-5	10.454114	129.850407	35.589572	134.639317	12.879074	0.274081	0.002867	0.005859
0.003072	2.574377E-5	0.002056	2.507309E-5	11.324734	131.646039	34.393895	136.064763	12.014831	0.261260	0.003072	0.005895
0.003277	2.591699E-5	0.002227	2.526543E-5	12.268072	133.357208	33.207551	137.429569	11.202214	0.249012	0.003277	0.005934
0.003686	2.610573E-5	0.002412	2.545230E-5	13.289815	134.987096	32.035519	138.736407	10.439303	0.237323	0.003686	0.005977
0.004096	2.630246E-5	0.002613	2.563397E-5	14.396806	136.538402	30.882134	139.987290	9.723496	0.226179	0.004096	0.006023
0.004506	2.648775E-5	0.002831	2.581065E-5	15.595930	138.014407	29.751731	141.184780	9.052668	0.215570	0.004506	0.006065
0.004915	2.664078E-5	0.003067	2.598253E-5	16.894886	139.418572	28.648190	142.331504	8.424532	0.205483	0.004915	0.006100
0.005325	2.678665E-5	0.003322	2.614993E-5	18.301972	140.754948	27.575023	143.430601	7.836893	0.195908	0.005325	0.006133
0.005734	2.690916E-5	0.003599	2.631308E-5	19.826622	142.026514	26.535591	144.484145	7.287381	0.186835	0.005734	0.006161
0.006144	2.704538E-5	0.003899	2.647230E-5	21.477694	143.238122	25.533038	145.496034	6.774285	0.178256	0.006144	0.006193
0.006554	2.720846E-5	0.004223	2.662789E-5	23.266926	144.393059	24.569912	146.468550	6.295140	0.170160	0.006554	0.006230
0.007373	2.739646E-5	0.004575	2.678021E-5	25.204803	145.495643	23.648966	147.405074	5.848293	0.162541	0.007373	0.006273
0.008192	2.760623E-5	0.004956	2.692956E-5	27.304099	146.549872	22.772358	148.308615	5.431734	0.155390	0.008192	0.006321
0.009011	2.782671E-5	0.005369	2.707637E-5	29.578034	147.560200	21.942055	149.182662	5.043698	0.148699	0.009011	0.006372
0.009830	2.800873E-5	0.005816	2.722099E-5	32.041865	148.530437	21.159796	150.030089	4.682314	0.142461	0.009830	0.006413
0.010650	2.818727E-5	0.006301	2.736381E-5	34.710729	149.464676	20.427291	150.854114	4.346037	0.136670	0.010650	0.006454
0.011469	2.832384E-5	0.006825	2.750529E-5	37.601666	150.367055	19.745901	151.658009	4.033279	0.131318	0.011469	0.006485
0.012288	2.847295E-5	0.007394	2.764583E-5	40.733370	151.241695	19.116774	152.445077	3.742511	0.126399	0.012288	0.006520
0.013107	2.865484E-5	0.008010	2.778590E-5	44.126300	152.092287	18.540984	153.218250	3.472266	0.121906	0.013107	0.006561
0.014746	2.886485E-5	0.008677	2.792597E-5	47.801260	152.922991	18.019457	153.980979	3.221274	0.117834	0.014746	0.006609
0.016384	2.910591E-5	0.009400	2.806651E-5	51.782890	153.737396	17.552920	154.736201	2.988172	0.114175	0.016384	0.006664
0.018022	2.938457E-5	0.010182	2.820806E-5	56.095816	154.539384	17.142067	155.487208	2.771815	0.110924	0.018022	0.006728
0.019661	2.962530E-5	0.011031	2.835112E-5	60.768496	155.332400	16.787444	156.236913	2.571018	0.108074	0.019661	0.006783
0.021299	2.986571E-5	0.011949	2.849623E-5	65.829887	156.120026	16.489563	156.988433	2.384759	0.105621	0.021299	0.006838
0.022938	3.005346E-5	0.012944	2.864395E-5	71.312600	156.905898	16.248800	157.744998	2.212021	0.103558	0.022938	0.006881
0.024576	3.021547E-5	0.014023	2.879491E-5	77.253180	157.692997	16.065504	158.509248	2.051815	0.101878	0.024576	0.006918
0.026214	3.041068E-5	0.015191	2.894964E-5	83.686983	158.484808	15.940025	159.284396	1.903335	0.100578	0.026214	0.006963
0.029491	3.067279E-5	0.016456	2.910881E-5	90.656946	159.284518	15.872611	160.073413	1.765705	0.099649	0.029491	0.007023
0.032768	3.100314E-5	0.017827	2.927307E-5	98.208054	160.095139	15.863537	160.879164	1.638146	0.099088	0.032768	0.007099
0.036045	3.136350E-5	0.019311	2.944305E-5	106.388248	160.919611	15.913071	161.704505	1.519947	0.098888	0.036045	0.007181
0.039322	3.171088E-5	0.020920	2.961947E-5	115.249491	161.760868	16.021489	162.552351	1.410439	0.099044	0.039322	0.007261
0.042598	3.205661E-5	0.022662	2.980302E-5	124.848957	162.621693	16.189076	163.425522	1.308986	0.099551	0.042598	0.007340
0.045875	3.228259E-5	0.024550	2.999450E-5	135.247688	163.504855	16.416155	164.326893	1.215007	0.100402	0.045875	0.007392
0.049152	3.250561E-5	0.026595	3.019462E-5	146.512624	164.413085	16.703101	165.259360	1.127953	0.101592	0.049152	0.007443
0.052429	3.279970E-5	0.028810	3.040422E-5	158.716804	165.348788	17.050288	166.225552	1.047309	0.103117	0.052429	0.007510
0.058982	3.318685E-5	0.031209	3.062415E-5	171.935361	166.314756	17.458211	167.228548	0.972625	0.104971	0.058982	0.007599
0.065536	3.369539E-5	0.033809	3.085529E-5	186.256576	167.313387	17.927428	168.271097	0.903437	0.107149	0.065536	0.007715
0.072090	3.425128E-5	0.036625	3.109848E-5	201.770712	168.346969	18.458483	169.355890	0.839348	0.109645	0.072090	0.007843
0.078643	3.470712E-5	0.039675	3.135474E-5	218.574086	169.418242	19.052147	170.486143	0.779992	0.112456	0.078643	0.007947
0.085197	3.517238E-5	0.042979	3.162505E-5	236.780151	170.529334	19.709216	171.664519	0.724995	0.115577	0.085197	0.008053
0.091750	3.546178E-5	0.046560	3.191052E-5	256.500860	171.682759	20.430592	172.894126	0.674049	0.119002	0.091750	0.008120
0.098304	3.577635E-5	0.050437	3.221208E-5	277.865604	172.880775	21.217315	174.177888	0.626842	0.122728	0.098304	0.008192
0.104858	3.618551E-5	0.054639	3.253109E-5	301.009768	174.125793	22.070552	175.518948	0.583101	0.126751	0.104858	0.008285
0.117965	3.675029E-5	0.059190	3.286859E-5	326.083678	175.419894	22.991509	176.920177	0.542561	0.131066	0.117965	0.008415
0.131072	3.748533E-5	0.064119	3.322594E-5	353.242515	176.765703	23.981672	178.385073	0.504993	0.135669	0.131072	0.008583
0.144179	3.833456E-5	0.069460	3.360450E-5	382.667518	178.165220	25.042577	179.916581	0.470164	0.140558	0.144179	0.008778
0.157286	3.828661E-5	0.075246	3.400571E-5	414.539389	179.620806	26.175855	181.518069	0.437879	0.145728	0.157286	0.008767
0.170394	3.959408E-5	0.081512	3.443101E-5	449.062192	181.135085	27.383558	183.193281	0.407946	0.151178	0.170394	0.009066
0.183501	4.280003E-5	0.088302	3.488212E-5	486.464049	182.710528	28.667950	184.945907	0.380184	0.156904	0.183501	0.009800
0.399815	4.912898E-5	0.095656	3.536057E-5	526.987968	184.349145	30.031170	186.779224	0.354428	0.162904	0.399815	0.011249
0.599722	5.722850E-5	0.103624	3.586840E-5	570.882297	186.053471	31.475617	188.697135	0.330536	0.169175	0.599722	0.013104
0.799629	6.640650E-5	0.112255	3.640738E-5	618.429910	187.826053	33.004088	190.703687	0.308368	0.175716	0.799629	0.015205
0.999536	7.496934E-5	0.121606	3.697967E-5	669.936671	189.669591	34.619671	192.803204	0.287793	0.182526	0.999536	0.017166
1.199440	8.311567E-5	0.131735	3.758737E-5	725.737706	191.586613	36.325640	194.999955	0.268692	0.189604	1.199440	0.019031
1.399350	9.128508E-5	0.142707	3.823286E-5	786.188850	193.579556	38.125354	197.298219	0.250955	0.196949	1.399350	0.020902
1.599260	9.987909E-5	0.154591	3.891861E-5	851.669377	195.651518	40.022745	199.703121	0.234484	0.204561	1.599260	0.022870
1.799170	0.000108	0.167468	3.964755E-5	922.611957	197.804645	42.021700	202.218943	0.219181	0.212440	1.799170	0.024679
1.999070	0.000116	0.181416	4.042236E-5	999.447107	200.042487	44.126804	204.851584	0.204965	0.220587	1.999070	0.026627
2.198980	0.000124	0.196527	4.124628E-5	1082.691206	202.367725	46.342977	207.606280	0.191750	0.229004	2.198980	0.028500
2.398890	0.000132	0.212896	4.212257E-5	1172.868601	204.783727	48.675521	210.489148	0.179465	0.237692	2.398890	0.030284
2.598790	0.000141	0.230630	4.305504E-5	1270.571426	207.292933	51.129756	213.505532	0.168039	0.246655	2.598790	0.032227
2.798700	0.000149	0.249838	4.404727E-5	1376.397498	209.898781	53.711572	216.662021	0.157412	0.255893	2.798700	0.034038
2.998610	0.000157	0.270648	4.510376E-5	1491.031610	212.605087	56.427882	219.965972	0.147526	0.265412	2.998610	0.035949
3.198520	0.000166	0.293189	4.622886E-5	1615.232818	215.414490	59.285431	223.423734	0.138323	0.275216	3.198520	0.037900
3.398420	0.000173	0.317608	4.742760E-5	1749.762898	218.330745	62.291624	227.043081	0.129756	0.285309	3.398420	0.039709
3.598330	0.000182	0.344066	4.870558E-5	1895.492547	221.357551	65.454749	230.832167	0.121780	0.295697	3.598330	0.041704
3.798240	0.000190	0.372720	5.006797E-5	2053.361115	224.499206	68.784038	234.800208	0.114349	0.306389	3.798240	0.043552
3.998150	0.000198	0.403765	5.152163E-5	2224.415437	227.757789	72.288022	238.954323	0.107423	0.317390	3.998150	0.045375
4.198050	0.000207	0.437399	5.307328E-5	2409.659953	231.138764	75.977238	243.305711	0.100971	0.328708	4.198050	0.047348
4.397960	0.000215	0.473828	5.472996E-5	2610.361513	234.645931	79.863148	247.864551	0.094954	0.340356	4.397960	0.049130
4.597870	0.000223	0.513292	5.650003E-5	2827.808013	238.282386	83.956850	252.640551	0.089341	0.352342	4.597870	0.051081
4.797770	0.000232	0.556046	5.839242E-5	3063.335332	242.052560	88.270836	257.645459	0.084106	0.364676	4.797770	0.053055
4.997680	0.000240	0.602358	6.041640E-5	3318.463717	245.961286	92.819362	262.892351	0.079221	0.377374	4.997680	0.054951
5.197590	0.000248	0.652533	6.258289E-5	3594.873262	250.012172	97.617001	268.393676	0.074660	0.390449	5.197590	0.056789
5.397500	0.000256	0.706882	6.490284E-5	3894.300187	254.209141	102.679126	274.162890	0.070401	0.403916	5.397500	0.058566
5.597400	0.000266	0.765753	6.738878E-5	4218.633162	258.557721	108.023669	280.216360	0.066423	0.417793	5.597400	0.060809
5.797310	0.000272	0.829540	7.005508E-5	4570.041042	263.061259	113.668935	286.569106	0.062706	0.432101	5.797310	0.062233
5.997220	0.000282	0.898638	7.291621E-5	4950.722686	267.723507	119.634117	293.237443	0.059231	0.446857	5.997220	0.064661
6.197130	0.000290	0.973481	7.598820E-5	5363.072631	272.548342	125.940194	300.239124	0.055983	0.462084	6.197130	0.066385
6.397030	0.000298	1.054566	7.928988E-5	5809.699205	277.541673	132.611798	307.595951	0.052945	0.477809	6.397030	0.068275
6.596940	0.000308	1.142396	8.284032E-5	6293.622337	282.706056	139.673741	315.327557	0.050103	0.494060	6.596940	0.070503
6.796850	0.000314	1.237545	8.666183E-5	6817.859708	288.043850	147.151426	323.454482	0.047442	0.510865	6.796850	0.071847
6.996760	0.000324	1.340632	9.077869E-5	7385.634869	293.561615	155.076317	332.004648	0.044953	0.528258	6.996760	0.074234
7.196660	0.000332	1.452297	9.521644E-5	8000.875283	299.258915	163.478324	341.000089	0.042620	0.546277	7.196660	0.076100
7.396570	0.000340	1.573262	0.000100	8667.240520	305.140036	172.391808	350.470222	0.040436	0.564960	7.396570	0.077801
7.596480	0.000351	1.704290	0.000105	9389.130537	311.206134	181.853580	360.444146	0.038390	0.584351	7.596480	0.080284
7.796380	0.000357	1.846253	0.000111	10171.113373	317.459767	191.904641	370.955651	0.036471	0.604501	7.796380	0.081724
7.996290	0.000367	2.000008	0.000117	11018.342907	323.899422	202.586929	382.037039	0.034673	0.625462	7.996290	0.083951
8.196200	0.000376	2.166586	0.000123	11936.062093	330.525969	213.947905	393.727218	0.032986	0.647295	8.196200	0.086067
8.396110	0.000382	2.347061	0.000130	12930.295611	337.335869	226.037007	406.064301	0.031404	0.670065	8.396110	0.087397
8.596010	0.000393	2.542552	0.000138	14007.233863	344.327127	238.909637	419.093051	0.029920	0.693845	8.596010	0.089903
8.795920	0.000402	2.754334	0.000146	15173.901912	351.494317	252.625245	432.859988	0.028527	0.718718	8.795920	0.091991
8.995830	0.000409	2.983740	0.000156	16437.747832	358.830603	267.248218	447.415926	0.027219	0.744775	8.995830	0.093717
9.195740	0.000420	3.232238	0.000165	17806.887934	366.325643	282.847072	462.814155	0.025991	0.772119	9.195740	0.096196
9.395640	0.000427	3.501470	0.000176	19289.949691	373.970163	299.500360	479.118095	0.024838	0.800867	9.395640	0.097784
9.595550	0.000437	3.793121	0.000188	20896.838577	381.743451	317.284585	496.384498	0.023754	0.831146	9.595550	0.100045
9.795460	0.000448	4.109056	0.000201	22637.094188	389.633943	336.295390	514.693305	0.022737	0.863106	9.795460	0.102601
9.995360	0.000454	4.451267	0.000215	24522.894510	397.610252	356.622402	534.109961	0.021780	0.896915	9.995360	0.104004
10.195300	0.000467	4.822052	0.000230	26565.251521	405.649216	378.372673	554.722603	0.020882	0.932758	10.195300	0.107016
