MicroRheology Analysis v9.2.8
10/03/18 5:14:37 PM

Correlation Mode:	Cross
Geometry:	Transmission
Multi-Tau Duration (s):	120
Echo Duration (s):	60
Wavelength (nm):	685.0
Temperature (°C):	30.04
Cuvette Thickness (mm):	5.00
Absorption Length (mm):	Inf
Solvent:	Water
Solvent Refractive Index:	1.329
Particle Radius (nm):	300.0
Mean Count Rate (kHz):	586.8
l* (microns):	594.15



Lag Time (s)	Mean Square Displacement (micron^2)	Fit Lag Time (s)	Mean Square Displacement Fit (micron^2)	Frequency(rad/s)	G1 (Pa)	G2 (Pa)	G* (Pa)	Complex Viscosity (Pa s)	Loss Tangent (-)	Time (s)	Creep Compliance (1/Pa)

2.812500E-6	2.948727E-6	2.812519E-6	2.936907E-6	0.250115	-1.060392	4.006170	4.144132	16.568901	-3.778009	2.812500E-6	0.000664
3.012500E-6	3.076596E-6	3.097081E-6	3.145363E-6	0.275418	-1.034404	4.564284	4.680029	16.992478	-4.412479	3.012500E-6	0.000693
3.212500E-6	3.242231E-6	3.410413E-6	3.366313E-6	0.303284	-0.977222	5.180994	5.272348	17.384179	-5.301758	3.212500E-6	0.000730
3.612500E-6	3.445737E-6	3.755466E-6	3.600311E-6	0.333966	-0.882511	5.858853	5.924946	17.741144	-6.638842	3.612500E-6	0.000776
4.012500E-6	3.760631E-6	4.135382E-6	3.847843E-6	0.367758	-0.743349	6.599571	6.641303	18.058911	-8.878165	4.012500E-6	0.000847
4.412500E-6	4.025502E-6	4.553835E-6	4.109524E-6	0.404965	-0.552403	7.404283	7.424860	18.334576	-13.403767	4.412500E-6	0.000906
4.812500E-6	4.292931E-6	5.014497E-6	4.385737E-6	0.445933	-0.301914	8.273484	8.278991	18.565536	-27.403421	4.812500E-6	0.000967
5.212500E-6	4.513962E-6	5.521880E-6	4.677129E-6	0.491052	0.016161	9.206487	9.206501	18.748532	569.676815	5.212500E-6	0.001016
5.612500E-6	4.759025E-6	6.080487E-6	4.984074E-6	0.540731	0.410005	10.201883	10.210119	18.882055	24.882311	5.612500E-6	0.001071
6.012500E-6	5.034313E-6	6.695760E-6	5.307185E-6	0.595441	0.887797	11.256855	11.291810	18.963769	12.679538	6.012500E-6	0.001133
6.412500E-6	5.234305E-6	7.373095E-6	5.646754E-6	0.655676	1.457630	12.368004	12.453602	18.993531	8.485008	6.412500E-6	0.001179
7.212500E-6	5.522616E-6	8.119049E-6	6.003347E-6	0.722014	2.127292	13.530327	13.696537	18.969901	6.360352	7.212500E-6	0.001243
8.012500E-6	5.910719E-6	8.940574E-6	6.377374E-6	0.795063	2.904089	14.738006	15.021403	18.893348	5.074916	8.012500E-6	0.001331
8.812500E-6	6.342185E-6	9.845061E-6	6.769097E-6	0.875514	3.794453	15.983456	16.427682	18.763477	4.212322	8.812500E-6	0.001428
9.612500E-6	6.678978E-6	1.084114E-5	7.178950E-6	0.964080	4.804200	17.258969	17.915143	18.582622	3.592475	9.612500E-6	0.001504
1.041250E-5	7.033800E-6	1.193800E-5	7.607197E-6	1.061617	5.938252	18.555484	19.482526	18.351747	3.124739	1.041250E-5	0.001584
1.121250E-5	7.282720E-6	1.314581E-5	8.054075E-6	1.169039	7.199879	19.862472	21.127140	18.072222	2.758723	1.121250E-5	0.001640
1.201250E-5	7.653059E-6	1.447568E-5	8.519745E-6	1.287302	8.591520	21.169826	22.846788	17.747808	2.464037	1.201250E-5	0.001723
1.281250E-5	8.005085E-6	1.594041E-5	9.004497E-6	1.417551	10.113814	22.465779	24.637379	17.380239	2.221296	1.281250E-5	0.001802
1.441250E-5	8.468179E-6	1.755304E-5	9.508226E-6	1.560951	11.766333	23.739318	26.495316	16.973826	2.017563	1.441250E-5	0.001907
1.601250E-5	8.913287E-6	1.932901E-5	1.003110E-5	1.718889	13.546627	24.978191	28.415157	16.531117	1.843868	1.601250E-5	0.002007
1.761250E-5	9.417114E-6	2.128455E-5	1.057298E-5	1.892782	15.451033	26.171124	30.391810	16.056687	1.693811	1.761250E-5	0.002120
1.921250E-5	9.844683E-6	2.343782E-5	1.113376E-5	2.084287	17.474199	27.306563	32.419069	15.554035	1.562679	1.921250E-5	0.002217
2.081250E-5	1.030155E-5	2.580925E-5	1.171336E-5	2.295171	19.609162	28.373578	34.490276	15.027325	1.446955	2.081250E-5	0.002319
2.241250E-5	1.069224E-5	2.842053E-5	1.231142E-5	2.527385	21.847740	29.362081	36.598574	14.480804	1.343941	2.241250E-5	0.002407
2.401250E-5	1.115412E-5	3.129553E-5	1.292752E-5	2.783106	24.180179	30.262572	38.736344	13.918387	1.251545	2.401250E-5	0.002511
2.561250E-5	1.169660E-5	3.446226E-5	1.356150E-5	3.064673	26.595871	31.066979	40.896180	13.344387	1.168113	2.561250E-5	0.002633
2.881250E-5	1.233615E-5	3.794838E-5	1.421251E-5	3.374725	29.083084	31.768145	43.070185	12.762576	1.092324	2.881250E-5	0.002777
3.201250E-5	1.300456E-5	4.178831E-5	1.488033E-5	3.716120	31.629946	32.360683	45.251158	12.176992	1.023103	3.201250E-5	0.002928
3.521250E-5	1.366260E-5	4.601568E-5	1.556394E-5	4.092135	34.222761	32.839632	47.430358	11.590615	0.959585	3.521250E-5	0.003076
3.841250E-5	1.423384E-5	5.067125E-5	1.626284E-5	4.506097	36.848822	33.202750	49.600991	11.007529	0.901053	3.841250E-5	0.003205
4.161250E-5	1.480399E-5	5.579765E-5	1.697610E-5	4.962016	39.494442	33.448176	51.755110	10.430259	0.846908	4.161250E-5	0.003333
4.481250E-5	1.533159E-5	6.144276E-5	1.770284E-5	5.464030	42.146295	33.576141	53.885688	9.861895	0.796657	4.481250E-5	0.003452
4.801250E-5	1.589625E-5	6.765918E-5	1.844209E-5	6.016826	44.791774	33.588198	55.986338	9.304962	0.749874	4.801250E-5	0.003579
5.121250E-5	1.652950E-5	7.450484E-5	1.919282E-5	6.625649	47.417678	33.486815	58.050004	8.761407	0.706210	5.121250E-5	0.003722
5.761250E-5	1.726262E-5	8.204344E-5	1.995390E-5	7.295943	50.012527	33.276466	60.071425	8.233538	0.665363	5.761250E-5	0.003887
6.401250E-5	1.804950E-5	9.034344E-5	2.072399E-5	8.034089	52.565173	32.962157	62.045155	7.722737	0.627072	6.401250E-5	0.004064
7.041250E-5	1.884132E-5	9.948377E-5	2.150204E-5	8.846870	55.065885	32.550278	63.966963	7.230463	0.591115	7.041250E-5	0.004242
7.681250E-5	1.954398E-5	0.000110	2.228671E-5	9.742001	57.505377	32.047754	65.832567	6.757602	0.557300	7.681250E-5	0.004400
8.321250E-5	2.020011E-5	0.000121	2.307667E-5	10.727683	59.875474	31.462539	67.638478	6.305041	0.525466	8.321250E-5	0.004548
8.961250E-5	2.075403E-5	0.000133	2.387048E-5	11.812961	62.169829	30.803194	69.382450	5.873417	0.495469	8.961250E-5	0.004673
9.601250E-5	2.136539E-5	0.000146	2.466685E-5	13.008131	64.382745	30.078429	71.062295	5.462913	0.467182	9.601250E-5	0.004810
0.000102	2.205890E-5	0.000161	2.546429E-5	14.324164	66.509932	29.297506	72.676784	5.073719	0.440498	0.000102	0.004967
0.000115	2.285185E-5	0.000177	2.626142E-5	15.773317	68.548691	28.469715	74.225654	4.705773	0.415321	0.000115	0.005145
0.000128	2.371623E-5	0.000195	2.705668E-5	17.369406	70.496309	27.604260	75.708155	4.358707	0.391570	0.000128	0.005340
0.000141	2.457482E-5	0.000215	2.784894E-5	19.126572	72.352289	26.710699	77.125321	4.032365	0.369176	0.000141	0.005533
0.000154	2.529562E-5	0.000237	2.863665E-5	21.061510	74.116990	25.797898	78.478403	3.726153	0.348070	0.000154	0.005695
0.000166	2.595844E-5	0.000261	2.941831E-5	23.192351	75.791580	24.874575	79.769092	3.439457	0.328197	0.000166	0.005845
0.000179	2.651825E-5	0.000287	3.019280E-5	25.538957	77.377933	23.949160	80.999425	3.171603	0.309509	0.000179	0.005971
0.000192	2.711275E-5	0.000316	3.095869E-5	28.122938	78.878737	23.029734	82.171917	2.921882	0.291964	0.000192	0.006104
0.000205	2.779009E-5	0.000348	3.171492E-5	30.968048	80.297770	22.123837	83.289831	2.689541	0.275522	0.000205	0.006257
0.000230	2.856930E-5	0.000383	3.246013E-5	34.101225	81.638970	21.238426	84.356340	2.473704	0.260151	0.000230	0.006432
0.000256	2.939869E-5	0.000422	3.319338E-5	37.551139	82.907166	20.380068	85.375320	2.273575	0.245818	0.000256	0.006619
0.000282	3.020984E-5	0.000465	3.391364E-5	41.350403	84.107305	19.554693	86.350592	2.088265	0.232497	0.000282	0.006802
0.000307	3.089648E-5	0.000512	3.462002E-5	45.534042	85.244801	18.767823	87.286352	1.916947	0.220164	0.000307	0.006956
0.000333	3.152005E-5	0.000564	3.531157E-5	50.141074	86.325179	18.024438	88.186830	1.758774	0.208797	0.000333	0.007097
0.000358	3.203712E-5	0.000621	3.598775E-5	55.213807	87.354365	17.329041	89.056616	1.612941	0.198376	0.000358	0.007213
0.000384	3.256463E-5	0.000684	3.664786E-5	60.799803	88.338390	16.685586	89.900389	1.478630	0.188883	0.000384	0.007332
0.000410	3.315778E-5	0.000753	3.729145E-5	66.951543	89.282986	16.097677	90.722581	1.355048	0.180299	0.000410	0.007465
0.000461	3.382415E-5	0.000829	3.791819E-5	73.724567	90.194504	15.568525	91.528288	1.241490	0.172611	0.000461	0.007616
0.000512	3.453640E-5	0.000913	3.852781E-5	81.184338	91.078539	15.100893	92.321922	1.137189	0.165801	0.000512	0.007776
0.000563	3.522231E-5	0.001005	3.912014E-5	89.397358	91.941268	14.697355	93.108587	1.041514	0.159856	0.000563	0.007930
0.000614	3.578480E-5	0.001107	3.969530E-5	98.442693	92.788184	14.360072	93.892804	0.953781	0.154762	0.000614	0.008057
0.000666	3.629210E-5	0.001219	4.025336E-5	108.401701	93.625060	14.091078	94.679514	0.873414	0.150505	0.000666	0.008171
0.000717	3.672594E-5	0.001342	4.079457E-5	119.368511	94.457442	13.892112	95.473552	0.799822	0.147073	0.000717	0.008269
0.000768	3.717486E-5	0.001478	4.131948E-5	131.446335	95.290515	13.764799	96.279551	0.732463	0.144451	0.000768	0.008370
0.000819	3.767431E-5	0.001628	4.182838E-5	144.746127	96.129288	13.710656	97.102122	0.670844	0.142627	0.000819	0.008482
0.000922	3.822676E-5	0.001792	4.232211E-5	159.389629	96.978834	13.731108	97.946095	0.614507	0.141589	0.000922	0.008607
0.001024	3.881527E-5	0.001974	4.280141E-5	175.515395	97.843814	13.827504	98.816051	0.563005	0.141322	0.001024	0.008739
0.001126	3.938790E-5	0.002173	4.326724E-5	193.271824	98.728884	14.001220	99.716733	0.515940	0.141815	0.001126	0.008868
0.001229	3.986872E-5	0.002393	4.372054E-5	212.826184	99.638366	14.253630	100.652719	0.472934	0.143054	0.001229	0.008976
0.001331	4.031282E-5	0.002635	4.416250E-5	234.359213	100.576380	14.586140	101.628557	0.433644	0.145026	0.001331	0.009076
0.001434	4.067779E-5	0.002902	4.459447E-5	258.068817	101.547183	15.000302	102.649108	0.397759	0.147718	0.001434	0.009159
0.001536	4.106587E-5	0.003196	4.501778E-5	284.181365	102.554286	15.497640	103.718650	0.364973	0.151116	0.001536	0.009246
0.001638	4.150397E-5	0.003519	4.543389E-5	312.928267	103.601866	16.079962	104.842318	0.335036	0.155209	0.001638	0.009345
0.001843	4.200158E-5	0.003875	4.584460E-5	344.589405	104.693396	16.749208	106.024729	0.307684	0.159983	0.001843	0.009457
0.002048	4.254621E-5	0.004267	4.625148E-5	379.454711	105.832256	17.507367	107.270566	0.282697	0.165426	0.002048	0.009579
0.002253	4.307327E-5	0.004699	4.665647E-5	417.842790	107.022049	18.356752	108.584941	0.259870	0.171523	0.002253	0.009698
0.002458	4.348892E-5	0.005174	4.706150E-5	460.116391	108.266215	19.299974	109.973007	0.239011	0.178264	0.002458	0.009792
0.002662	4.388015E-5	0.005698	4.746860E-5	506.672483	109.567803	20.339713	111.439703	0.219944	0.185636	0.002662	0.009880
0.002867	4.418898E-5	0.006274	4.788001E-5	557.933989	110.930168	21.478972	112.990479	0.202516	0.193626	0.002867	0.009949
0.003072	4.450899E-5	0.006909	4.829799E-5	614.381079	112.356438	22.721055	114.630779	0.186579	0.202223	0.003072	0.010021
0.003277	4.489932E-5	0.007608	4.872501E-5	676.533466	113.850270	24.069833	116.366838	0.172005	0.211417	0.003277	0.010109
0.003686	4.533171E-5	0.008377	4.916355E-5	744.990433	115.414267	25.529123	118.204015	0.158665	0.221196	0.003686	0.010206
0.004096	4.578576E-5	0.009225	4.961621E-5	820.358861	117.052062	27.103262	120.148957	0.146459	0.231549	0.004096	0.010309
0.004506	4.625514E-5	0.010158	5.008580E-5	903.356857	118.766909	28.797138	122.208240	0.135282	0.242468	0.004506	0.010414
0.004915	4.665891E-5	0.011186	5.057533E-5	994.755685	120.561924	30.615773	124.388516	0.125044	0.253942	0.004915	0.010505
0.005325	4.705103E-5	0.012318	5.108772E-5	1095.391283	122.440888	32.564921	126.697455	0.115664	0.265964	0.005325	0.010594
0.005734	4.738347E-5	0.013564	5.162636E-5	1206.219242	124.407086	34.650694	129.142532	0.107064	0.278527	0.005734	0.010668
0.006144	4.771759E-5	0.014936	5.219444E-5	1328.257899	126.464092	36.879584	131.731812	0.099176	0.291621	0.006144	0.010744
0.006554	4.810467E-5	0.016447	5.279575E-5	1462.636748	128.615790	39.258819	134.474073	0.091939	0.305241	0.006554	0.010831
0.007373	4.856237E-5	0.018111	5.343392E-5	1610.612850	130.866151	41.796271	137.378592	0.085296	0.319382	0.007373	0.010934
0.008192	4.911487E-5	0.019944	5.411301E-5	1773.568209	133.218897	44.500123	140.454745	0.079193	0.334038	0.008192	0.011058
0.009011	4.972419E-5	0.021962	5.483733E-5	1952.993275	135.678868	47.379728	143.713582	0.073586	0.349205	0.009011	0.011195
0.009830	5.025534E-5	0.024184	5.561135E-5	2150.599255	138.250005	50.444776	147.165687	0.068430	0.364881	0.009830	0.011315
0.010650	5.075816E-5	0.026630	5.643991E-5	2368.190320	140.937013	53.705657	150.822874	0.063687	0.381061	0.010650	0.011428
0.011469	5.115383E-5	0.029324	5.732811E-5	2607.788025	143.744716	57.173706	154.697693	0.059321	0.397745	0.011469	0.011517
0.012288	5.155720E-5	0.032291	5.828161E-5	2871.611617	146.678834	60.861635	158.804342	0.055301	0.414931	0.012288	0.011608
0.013107	5.205976E-5	0.035558	5.930625E-5	3162.164325	149.743946	64.782272	163.156342	0.051596	0.432620	0.013107	0.011721
0.014746	5.267248E-5	0.039156	6.040861E-5	3482.074062	152.946538	68.950156	167.769984	0.048181	0.450812	0.014746	0.011859
0.016384	5.339266E-5	0.043118	6.159556E-5	3834.376332	156.291894	73.380343	172.661029	0.045030	0.469508	0.016384	0.012021
0.018022	5.418978E-5	0.047480	6.287451E-5	4222.274091	159.787577	78.090111	177.848630	0.042122	0.488712	0.018022	0.012201
0.019661	5.490055E-5	0.052283	6.425359E-5	4649.485722	163.439585	83.097199	183.351145	0.039435	0.508428	0.019661	0.012361
0.021299	5.557776E-5	0.057572	6.574177E-5	5119.917077	167.254382	88.419948	189.188042	0.036951	0.528655	0.021299	0.012513
0.022938	5.610421E-5	0.063398	6.734914E-5	5637.838952	171.241158	94.080219	195.383269	0.034656	0.549402	0.022938	0.012632
0.024576	5.663357E-5	0.069812	6.908562E-5	6208.236961	175.407096	100.100326	201.959710	0.032531	0.570674	0.024576	0.012751
0.026214	5.729009E-5	0.076875	7.096317E-5	6836.332868	179.761158	106.504546	208.943276	0.030564	0.592478	0.026214	0.012899
0.029491	5.810661E-5	0.084653	7.299461E-5	7528.003419	184.311882	113.318592	216.360747	0.028741	0.614820	0.029491	0.013083
0.032768	5.909396E-5	0.093217	7.519373E-5	8289.605344	189.069766	120.571242	224.242727	0.027051	0.637708	0.032768	0.013305
0.036045	6.016661E-5	0.102648	7.757648E-5	9128.326788	194.044440	128.292641	232.620391	0.025483	0.661151	0.036045	0.013547
0.039322	6.118901E-5	0.113034	8.015975E-5	10051.891269	199.246843	136.515415	241.527975	0.024028	0.685157	0.039322	0.013777
0.042598	6.225924E-5	0.124470	8.296207E-5	11068.872383	204.688266	145.274656	251.002016	0.022676	0.709736	0.042598	0.014018
0.045875	6.304371E-5	0.137062	8.600493E-5	12188.664660	210.382615	154.610234	261.084602	0.021420	0.734900	0.045875	0.014194
0.049152	6.374779E-5	0.150929	8.931132E-5	13421.946376	216.341432	164.562533	271.816928	0.020252	0.760661	0.049152	0.014353
0.052429	6.458564E-5	0.166201	9.290806E-5	14779.961179	222.578816	175.175794	283.245279	0.019164	0.787028	0.052429	0.014542
0.058982	6.567323E-5	0.183015	9.682280E-5	16275.310076	229.109694	186.498369	295.419859	0.018151	0.814013	0.058982	0.014786
0.065536	6.713020E-5	0.201531	0.000101	17921.900350	235.949951	198.582619	308.394935	0.017208	0.841630	0.065536	0.015114
0.072090	6.885960E-5	0.221922	0.000106	19735.056758	243.116776	211.485547	322.229581	0.016328	0.869893	0.072090	0.015504
0.078643	7.045583E-5	0.244371	0.000111	21731.724995	250.626571	225.266561	336.984720	0.015507	0.898814	0.078643	0.015863
0.085197	7.220450E-5	0.269098	0.000116	23930.136923	258.502180	239.995966	352.734236	0.014740	0.928410	0.085197	0.016257
0.091750	7.358062E-5	0.296320	0.000122	26351.583342	266.757837	255.739129	369.543294	0.014024	0.958694	0.091750	0.016567
0.098304	7.506723E-5	0.326299	0.000129	29017.247613	275.422122	272.580218	387.501381	0.013354	0.989682	0.098304	0.016901
0.104858	7.702473E-5	0.359311	0.000136	31953.442415	284.510804	290.596154	406.684795	0.012727	1.021389	0.104858	0.017342
0.117965	7.950502E-5	0.395666	0.000144	35185.835457	294.054341	309.883128	427.194930	0.012141	1.053829	0.117965	0.017901
0.131072	8.244469E-5	0.435697	0.000153	38745.797204	304.076527	330.538803	449.130754	0.011592	1.087025	0.131072	0.018562
0.144179	8.581197E-5	0.479780	0.000163	42666.084405	314.603181	352.666348	472.597836	0.011077	1.120988	0.144179	0.019321
0.157286	8.496160E-5	0.528323	0.000174	46982.433245	325.666656	376.384532	497.718883	0.010594	1.155736	0.157286	0.019129
0.170394	9.479026E-5	0.581771	0.000185	51735.710724	337.298036	401.819561	524.622650	0.010140	1.191289	0.170394	0.021342
0.183501	0.000110	0.640635	0.000199	56970.184843	349.528339	429.103766	553.443855	0.009715	1.227665	0.183501	0.024762
0.399815	0.000131	0.705442	0.000213	62733.645410	362.398170	458.391849	584.341955	0.009315	1.264885	0.399815	0.029554
0.599722	0.000188	0.776819	0.000229	69081.379784	375.937945	489.834256	617.468167	0.008938	1.302966	0.599722	0.042412
0.799629	0.000235	0.855403	0.000247	76069.879370	390.194350	523.612717	653.009884	0.008584	1.341928	0.799629	0.053008
0.999537	0.000284	0.941959	0.000267	83766.140536	405.207742	559.915253	691.157294	0.008251	1.381798	0.999537	0.063850
1.199440	0.000334	1.037258	0.000289	92241.240673	421.023238	598.946584	732.118555	0.007937	1.422597	1.199440	0.075259
1.399350	0.000384	1.142187	0.000314	101573.774730	437.687265	640.927062	776.117028	0.007641	1.464349	1.399350	0.086464
1.599260	0.000433	1.257762	0.000341	111849.648041	455.256711	686.110358	823.411256	0.007362	1.507085	1.599260	0.097496
1.799170	0.000485	1.385014	0.000372	123167.141853	473.777986	734.750051	874.255808	0.007098	1.550832	1.799170	0.109254
1.999070	0.000537	1.525144	0.000407	135628.251681	493.309053	787.132469	928.940980	0.006849	1.595617	1.999070	0.120807
2.198980	0.000592	1.679427	0.000446	149348.252569	513.921272	843.594098	987.808724	0.006614	1.641485	2.198980	0.133339
2.398890	0.000642	1.849347	0.000490	164460.501299	535.663964	904.454028	1051.176946	0.006392	1.688473	2.398890	0.144610
2.598790	0.000693	2.036445	0.000540	181097.755550	558.621766	970.115546	1119.456319	0.006182	1.736623	2.598790	0.156057
2.798700	0.000749	2.242488	0.000595	199421.780335	582.856053	1040.973541	1193.041110	0.005983	1.785987	2.798700	0.168681
2.998610	0.000809	2.469350	0.000659	219595.152821	608.470039	1117.530957	1272.443016	0.005794	1.836624	2.998610	0.182207
3.198520	0.000865	2.719182	0.000730	241815.639973	635.542237	1200.284987	1358.159779	0.005617	1.888600	3.198520	0.194781
3.398420	0.000935	2.994313	0.000812	266278.515220	664.207829	1289.881289	1450.850020	0.005449	1.941984	3.398420	0.210614
3.598330	0.000988	3.297236	0.000904	293219.589991	694.612508	1387.050335	1551.255997	0.005290	1.996869	3.598330	0.222542
3.798240	0.001056	3.630848	0.001009	322884.685458	726.975123	1492.735672	1660.347138	0.005142	2.053352	3.798240	0.237693
