MicroRheology Analysis v9.2.8
10/11/18 8:15:22 PM

Correlation Mode:	Cross
Geometry:	Transmission
Multi-Tau Duration (s):	120
Echo Duration (s):	60
Wavelength (nm):	685.0
Temperature (°C):	20.03
Cuvette Thickness (mm):	5.00
Absorption Length (mm):	86.701
Solvent:	Water
Solvent Refractive Index:	1.329
Particle Radius (nm):	300.0
Mean Count Rate (kHz):	599.2
l* (microns):	786.14



Lag Time (s)	Mean Square Displacement (micron^2)	Fit Lag Time (s)	Mean Square Displacement Fit (micron^2)	Frequency(rad/s)	G1 (Pa)	G2 (Pa)	G* (Pa)	Complex Viscosity (Pa s)	Loss Tangent (-)	Time (s)	Creep Compliance (1/Pa)

1.921250E-5	6.591026E-6	1.921277E-5	6.447751E-6	0.079401	-0.968283	6.223404	6.298280	79.322333	-6.427257	1.921250E-5	0.001535
2.081250E-5	6.805457E-6	2.080712E-5	6.790095E-6	0.085991	-0.839258	6.878075	6.929088	80.579686	-8.195419	2.081250E-5	0.001585
2.241250E-5	7.087763E-6	2.253370E-5	7.140482E-6	0.093126	-0.672843	7.578273	7.608084	81.696693	-11.263055	2.241250E-5	0.001650
2.401250E-5	7.438122E-6	2.440352E-5	7.498618E-6	0.100853	-0.464720	8.324366	8.337328	82.667809	-17.912643	2.401250E-5	0.001732
2.561250E-5	7.899308E-6	2.642894E-5	7.864272E-6	0.109224	-0.210487	9.115954	9.118384	83.483486	-43.308803	2.561250E-5	0.001839
2.881250E-5	8.363169E-6	2.862199E-5	8.236965E-6	0.118288	0.094285	9.952615	9.953061	84.142893	105.558349	2.881250E-5	0.001947
3.201250E-5	8.822453E-6	3.099698E-5	8.616423E-6	0.128104	0.454063	10.833163	10.842674	84.639374	23.858289	3.201250E-5	0.002054
3.521250E-5	9.204423E-6	3.356933E-5	9.002345E-6	0.138734	0.873297	11.756400	11.788790	84.974005	13.462090	3.521250E-5	0.002143
3.841250E-5	9.506930E-6	3.635503E-5	9.394314E-6	0.150247	1.356358	12.720283	12.792392	85.142164	9.378263	3.841250E-5	0.002214
4.161250E-5	9.850940E-6	3.937231E-5	9.792030E-6	0.162716	1.907435	13.722498	13.854431	85.145034	7.194216	4.161250E-5	0.002294
4.481250E-5	1.023209E-5	4.263930E-5	1.019498E-5	0.176218	2.530560	14.760257	14.975611	84.983215	5.832803	4.481250E-5	0.002382
4.801250E-5	1.066364E-5	4.617829E-5	1.060298E-5	0.190842	3.229515	15.830331	16.156396	84.658552	4.901767	4.801250E-5	0.002483
5.121250E-5	1.109698E-5	5.001003E-5	1.101542E-5	0.206679	4.007732	16.928955	17.396880	84.173379	4.224073	5.121250E-5	0.002584
5.761250E-5	1.160308E-5	5.416046E-5	1.143211E-5	0.223830	4.868386	18.052227	18.697168	83.533073	3.708052	5.761250E-5	0.002702
6.401250E-5	1.216107E-5	5.865433E-5	1.185247E-5	0.242405	5.814158	19.195534	20.056743	82.740656	3.301516	6.401250E-5	0.002832
7.041250E-5	1.269261E-5	6.352188E-5	1.227629E-5	0.262521	6.847302	20.354148	21.475029	81.803058	2.972579	7.041250E-5	0.002955
7.681250E-5	1.319779E-5	6.879407E-5	1.270315E-5	0.284307	7.969482	21.522791	22.950886	80.725716	2.700651	7.681250E-5	0.003073
8.321250E-5	1.366549E-5	7.450260E-5	1.313252E-5	0.307898	9.182224	22.696629	24.483672	79.518885	2.471801	8.321250E-5	0.003182
8.961250E-5	1.398734E-5	8.068509E-5	1.356412E-5	0.333453	10.485901	23.869411	26.071112	78.185279	2.276334	8.961250E-5	0.003257
9.601250E-5	1.440098E-5	8.738012E-5	1.399750E-5	0.361122	11.880658	25.035848	27.711798	76.738061	2.107278	9.601250E-5	0.003353
0.000102	1.490601E-5	9.463159E-5	1.443237E-5	0.391087	13.366224	26.190258	29.403836	75.184860	1.959436	0.000102	0.003471
0.000115	1.545001E-5	0.000102	1.486833E-5	0.423543	14.941581	27.326814	31.144913	73.534294	1.828910	0.000115	0.003597
0.000128	1.606785E-5	0.000111	1.530492E-5	0.458696	16.604587	28.439244	32.931792	71.794427	1.712734	0.000128	0.003741
0.000141	1.667523E-5	0.000120	1.574175E-5	0.496755	18.353330	29.522504	34.762378	69.978896	1.608564	0.000141	0.003883
0.000154	1.717108E-5	0.000130	1.617862E-5	0.537979	20.184914	30.570738	36.633328	68.094342	1.514534	0.000154	0.003998
0.000166	1.762833E-5	0.000141	1.661509E-5	0.582622	22.096070	31.578845	38.541663	66.152068	1.429161	0.000166	0.004105
0.000179	1.802418E-5	0.000153	1.705070E-5	0.630975	24.082578	32.541426	40.483515	64.160249	1.351243	0.000179	0.004197
0.000192	1.843377E-5	0.000165	1.748525E-5	0.683333	26.140521	33.454277	42.456042	62.130868	1.279786	0.000192	0.004292
0.000205	1.890769E-5	0.000179	1.791835E-5	0.740048	28.264543	34.312374	44.454734	60.070072	1.213972	0.000205	0.004402
0.000230	1.943857E-5	0.000194	1.834973E-5	0.801457	30.449451	35.112074	46.476089	57.989469	1.153127	0.000230	0.004526
0.000256	2.000924E-5	0.000210	1.877903E-5	0.867959	32.690343	35.850159	48.516929	55.897738	1.096659	0.000256	0.004659
0.000282	2.056528E-5	0.000227	1.920587E-5	0.939999	34.980400	36.522717	50.572099	53.800162	1.044091	0.000282	0.004788
0.000307	2.102439E-5	0.000246	1.963008E-5	1.017991	37.314385	37.128071	52.638930	51.708643	0.995007	0.000307	0.004895
0.000333	2.144440E-5	0.000267	2.005139E-5	1.102478	39.685526	37.663408	54.712642	49.626954	0.949046	0.000333	0.004993
0.000358	2.179909E-5	0.000289	2.046944E-5	1.193964	42.087499	38.127459	56.789618	47.563922	0.905909	0.000358	0.005076
0.000384	2.217342E-5	0.000313	2.088401E-5	1.293041	44.514248	38.519223	58.866364	45.525530	0.865323	0.000384	0.005163
0.000410	2.258223E-5	0.000339	2.129482E-5	1.400356	46.958749	38.837748	60.938450	43.516407	0.827061	0.000410	0.005258
0.000461	2.304434E-5	0.000367	2.170177E-5	1.516557	49.414961	39.083335	63.002741	41.543281	0.790921	0.000461	0.005366
0.000512	2.352267E-5	0.000397	2.210447E-5	1.642409	51.876391	39.256141	65.055396	39.609730	0.756725	0.000512	0.005477
0.000563	2.399435E-5	0.000430	2.250283E-5	1.778695	54.337211	39.357249	67.093409	37.720571	0.724315	0.000563	0.005587
0.000614	2.437291E-5	0.000466	2.289666E-5	1.926306	56.791268	39.387768	69.113272	35.878656	0.693553	0.000614	0.005675
0.000666	2.473442E-5	0.000505	2.328568E-5	2.086161	59.233156	39.349601	71.112291	34.087638	0.664317	0.000666	0.005759
0.000717	2.503622E-5	0.000547	2.366986E-5	2.259305	61.656887	39.244589	73.086999	32.349335	0.636500	0.000717	0.005829
0.000768	2.533959E-5	0.000592	2.404898E-5	2.446787	64.057768	39.075516	75.035282	30.666869	0.610004	0.000768	0.005900
0.000819	2.568236E-5	0.000641	2.442290E-5	2.649845	66.430724	38.844919	76.954330	29.041067	0.584743	0.000819	0.005980
0.000922	2.608271E-5	0.000694	2.479159E-5	2.869735	68.771462	38.556019	78.842124	27.473665	0.560640	0.000922	0.006073
0.001024	2.649605E-5	0.000752	2.515490E-5	3.107871	71.075808	38.212040	80.696534	25.965212	0.537624	0.001024	0.006169
0.001126	2.691183E-5	0.000814	2.551275E-5	3.365750	73.340627	37.816622	82.516329	24.516476	0.515630	0.001126	0.006266
0.001229	2.725548E-5	0.000882	2.586508E-5	3.645084	75.562292	37.373208	84.299566	23.126918	0.494601	0.001229	0.006346
0.001331	2.755248E-5	0.000955	2.621181E-5	3.947598	77.737690	36.885739	86.044792	21.796747	0.474490	0.001331	0.006415
0.001434	2.779934E-5	0.001034	2.655297E-5	4.275184	79.864326	36.358202	87.750951	20.525657	0.455250	0.001434	0.006473
0.001536	2.806237E-5	0.001120	2.688848E-5	4.629916	81.940664	35.794627	89.417715	19.313033	0.436836	0.001536	0.006534
0.001638	2.836288E-5	0.001213	2.721842E-5	5.014151	83.964493	35.198821	91.043908	18.157394	0.419211	0.001638	0.006604
0.001843	2.870418E-5	0.001314	2.754282E-5	5.430217	85.935109	34.575037	92.629780	17.058211	0.402339	0.001843	0.006683
0.002048	2.906304E-5	0.001423	2.786166E-5	5.880913	87.850767	33.927036	94.174312	16.013552	0.386189	0.002048	0.006767
0.002253	2.940564E-5	0.001541	2.817497E-5	6.368892	89.711461	33.259089	95.678176	15.022736	0.370734	0.002253	0.006847
0.002458	2.969560E-5	0.001669	2.848291E-5	6.897429	91.516952	32.574857	97.141514	14.083727	0.355943	0.002458	0.006914
0.002662	2.997302E-5	0.001807	2.878558E-5	7.469886	93.266630	31.878185	98.564106	13.194861	0.341796	0.002662	0.006979
0.002867	3.021675E-5	0.001957	2.908304E-5	8.089667	94.961686	31.172978	99.947368	12.354942	0.328269	0.002867	0.007036
0.003072	3.046543E-5	0.002120	2.937538E-5	8.761034	96.602315	30.462530	101.291525	11.561595	0.315340	0.003072	0.007094
0.003277	3.073210E-5	0.002296	2.966285E-5	9.488057	98.189722	29.750453	102.597812	10.813364	0.302989	0.003277	0.007156
0.003686	3.101512E-5	0.002486	2.994561E-5	10.275526	99.724383	29.039983	103.866612	10.108156	0.291202	0.003686	0.007221
0.004096	3.131841E-5	0.002693	3.022378E-5	11.128087	101.208498	28.334441	105.099955	9.444566	0.279961	0.004096	0.007292
0.004506	3.161701E-5	0.002916	3.049765E-5	12.051665	102.643136	27.636558	106.298602	8.820242	0.269249	0.004506	0.007362
0.004915	3.186942E-5	0.003158	3.076737E-5	13.051829	104.029970	26.949366	107.463961	8.233632	0.259054	0.004915	0.007420
0.005325	3.211469E-5	0.003420	3.103316E-5	14.134918	105.370799	26.275552	108.597467	7.682922	0.249363	0.005325	0.007478
0.005734	3.232157E-5	0.003704	3.129541E-5	15.307735	106.668071	25.617603	109.701135	7.166386	0.240162	0.005734	0.007526
0.006144	3.254471E-5	0.004011	3.155435E-5	16.578137	107.923646	24.977752	110.776358	6.682075	0.231439	0.006144	0.007578
0.006554	3.282187E-5	0.004344	3.181024E-5	17.953971	109.139632	24.358307	111.824802	6.228416	0.223185	0.006554	0.007642
0.007373	3.315040E-5	0.004705	3.206343E-5	19.443871	110.318415	23.761328	112.848365	5.803801	0.215389	0.007373	0.007719
0.008192	3.350845E-5	0.005095	3.231426E-5	21.057404	111.462426	23.188670	113.848965	5.406600	0.208040	0.008192	0.007802
0.009011	3.386256E-5	0.005518	3.256312E-5	22.804918	112.573926	22.642080	114.828361	5.035246	0.201131	0.009011	0.007884
0.009830	3.415093E-5	0.005976	3.281033E-5	24.697283	113.655425	22.123211	115.788566	4.688312	0.194652	0.009830	0.007952
0.010650	3.442072E-5	0.006472	3.305634E-5	26.746592	114.709700	21.633490	116.731843	4.364363	0.188593	0.010650	0.008014
0.011469	3.463501E-5	0.007009	3.330162E-5	28.966449	115.738869	21.174239	117.659824	4.061935	0.182948	0.011469	0.008064
0.012288	3.488109E-5	0.007591	3.354652E-5	31.370203	116.745616	20.746798	118.574738	3.779852	0.177709	0.012288	0.008122
0.013107	3.518824E-5	0.008221	3.379152E-5	33.973515	117.732423	20.352254	119.478608	3.516816	0.172869	0.013107	0.008193
0.014746	3.554991E-5	0.008903	3.403714E-5	36.792867	118.701622	19.991671	120.373345	3.271649	0.168420	0.014746	0.008277
0.016384	3.593379E-5	0.009642	3.428395E-5	39.845662	119.656024	19.666015	121.261355	3.043276	0.164355	0.016384	0.008367
0.018022	3.633111E-5	0.010442	3.453236E-5	43.152285	120.598055	19.376088	122.144683	2.830550	0.160667	0.018022	0.008459
0.019661	3.666885E-5	0.011308	3.478296E-5	46.733720	121.529831	19.122731	123.025114	2.632470	0.157350	0.019661	0.008538
0.021299	3.700784E-5	0.012247	3.503641E-5	50.611499	122.454215	18.906729	123.905202	2.448163	0.154398	0.021299	0.008617
0.022938	3.728962E-5	0.013263	3.529324E-5	54.812092	123.373091	18.728703	124.786553	2.276625	0.151805	0.022938	0.008682
0.024576	3.758820E-5	0.014363	3.555404E-5	59.359958	124.289231	18.589373	125.671707	2.117112	0.149565	0.024576	0.008752
0.026214	3.792694E-5	0.015555	3.581963E-5	64.285985	125.204976	18.489294	126.562791	1.968746	0.147672	0.026214	0.008831
0.029491	3.834822E-5	0.016846	3.609055E-5	69.621787	126.122105	18.429040	127.461425	1.830769	0.146121	0.029491	0.008929
0.032768	3.882795E-5	0.018244	3.636752E-5	75.398276	127.043412	18.409248	128.370281	1.702563	0.144905	0.032768	0.009041
0.036045	3.932471E-5	0.019758	3.665140E-5	81.655502	127.970964	18.430421	129.291330	1.583376	0.144020	0.036045	0.009156
0.039322	3.978007E-5	0.021398	3.694284E-5	88.432424	128.906676	18.493105	130.226441	1.472610	0.143461	0.039322	0.009262
0.042598	4.024970E-5	0.023174	3.724277E-5	95.770048	129.853011	18.597897	131.178071	1.369719	0.143223	0.042598	0.009372
0.045875	4.061925E-5	0.025097	3.755195E-5	103.717404	130.812176	18.745382	132.148457	1.274120	0.143300	0.045875	0.009458
0.049152	4.101300E-5	0.027179	3.787125E-5	112.326009	131.785852	18.936103	133.139351	1.185294	0.143688	0.049152	0.009549
0.052429	4.146608E-5	0.029435	3.820170E-5	121.646780	132.776283	19.170697	134.153110	1.102809	0.144383	0.052429	0.009655
0.058982	4.200702E-5	0.031877	3.854422E-5	131.740415	133.785690	19.449861	135.192115	1.026201	0.145381	0.058982	0.009781
0.065536	4.265221E-5	0.034523	3.889981E-5	142.672990	134.816138	19.774333	136.258633	0.955042	0.146676	0.065536	0.009931
0.072090	4.334196E-5	0.037388	3.926962E-5	154.514776	135.869281	20.144799	137.354557	0.888941	0.148266	0.072090	0.010092
0.078643	4.397664E-5	0.040490	3.965461E-5	167.336775	136.947253	20.562067	138.482305	0.827566	0.150146	0.078643	0.010239
0.085197	4.466735E-5	0.043850	4.005606E-5	181.221890	138.052256	21.027092	139.644420	0.770571	0.152313	0.085197	0.010400
0.091750	4.518021E-5	0.047489	4.047524E-5	196.261412	139.186042	21.540803	140.843035	0.717630	0.154763	0.091750	0.010520
0.098304	4.570611E-5	0.051430	4.091338E-5	212.547749	140.350679	22.104232	142.080647	0.668465	0.157493	0.098304	0.010642
0.104858	4.632702E-5	0.055698	4.137189E-5	230.185638	141.548162	22.718532	143.359736	0.622801	0.160500	0.104858	0.010787
0.117965	4.709671E-5	0.060320	4.185223E-5	249.287436	142.780638	23.384999	144.682994	0.580386	0.163783	0.117965	0.010966
0.131072	4.808059E-5	0.065326	4.235591E-5	269.977557	144.049802	24.104900	146.052701	0.540981	0.167337	0.131072	0.011195
0.144179	4.926608E-5	0.070747	4.288444E-5	292.382233	145.357541	24.879569	147.471379	0.504379	0.171161	0.144179	0.011471
0.157286	4.934362E-5	0.076618	4.343969E-5	316.640775	146.706390	25.710749	148.942296	0.470383	0.175253	0.157286	0.011489
0.170394	5.126983E-5	0.082976	4.402346E-5	342.917214	148.098315	26.600256	150.468218	0.438789	0.179612	0.170394	0.011938
0.183501	5.575173E-5	0.089863	4.463768E-5	371.377609	149.535046	27.549789	152.051704	0.409426	0.184236	0.183501	0.012981
0.399815	6.379227E-5	0.097319	4.528415E-5	402.195149	151.019085	28.561451	153.696196	0.382143	0.189125	0.399815	0.014853
0.599722	7.398909E-5	0.105396	4.596546E-5	435.574522	152.552229	29.637381	155.404495	0.356780	0.194277	0.599722	0.017227
0.799629	8.510129E-5	0.114142	4.668361E-5	471.719819	154.136666	30.779850	157.179869	0.333206	0.199692	0.799629	0.019815
0.999536	9.493216E-5	0.123614	4.744125E-5	510.859963	155.775053	31.991624	159.026196	0.311291	0.205371	0.999536	0.022104
1.199440	0.000104	0.133871	4.824076E-5	553.255126	157.469527	33.275552	160.946930	0.290909	0.211314	1.199440	0.024277
1.399350	0.000114	0.144982	4.908540E-5	599.172398	159.222081	34.634435	162.945436	0.271951	0.217523	1.399350	0.026438
1.599260	0.000123	0.157013	4.997787E-5	648.893954	161.035171	36.071441	165.025680	0.254318	0.223997	1.599260	0.028708
1.799160	0.000133	0.170042	5.092138E-5	702.737105	162.911612	37.590287	167.192174	0.237916	0.230740	1.799160	0.030871
1.999070	0.000142	0.184155	5.191976E-5	761.056266	164.853797	39.194826	169.449133	0.222650	0.237755	1.999070	0.033179
2.198980	0.000152	0.199436	5.297629E-5	824.220481	166.863883	40.888891	171.800632	0.208440	0.245043	2.198980	0.035450
2.398890	0.000162	0.215987	5.409533E-5	892.617597	168.944576	42.676772	174.251475	0.195214	0.252608	2.398890	0.037629
2.598790	0.000172	0.233908	5.528088E-5	966.683458	171.098999	44.563466	176.807155	0.182901	0.260454	2.598790	0.039965
2.798700	0.000181	0.253319	5.653792E-5	1046.905194	173.329489	46.553985	179.472520	0.171431	0.268587	2.798700	0.042158
2.998610	0.000191	0.274342	5.787149E-5	1133.777770	175.639250	48.653910	182.253530	0.160749	0.277010	2.998610	0.044458
3.198520	0.000201	0.297111	5.928693E-5	1227.867758	178.030965	50.869163	185.155871	0.150795	0.285732	3.198520	0.046806
3.398420	0.000211	0.321764	6.078979E-5	1329.765849	180.507613	53.206068	188.185770	0.141518	0.294758	3.398420	0.049062
3.598330	0.000221	0.348464	6.238681E-5	1440.119850	183.072300	55.671542	191.349909	0.132871	0.304096	3.598330	0.051486
3.798240	0.000231	0.377381	6.408480E-5	1559.634613	185.727753	58.272775	194.654860	0.124808	0.313754	3.798240	0.053830
3.998150	0.000241	0.408699	6.589140E-5	1689.051539	188.477636	61.017922	198.108571	0.117290	0.323741	3.998150	0.056120
4.198050	0.000252	0.442614	6.781440E-5	1829.215320	191.325185	63.915770	201.718993	0.110276	0.334069	4.198050	0.058620
4.397960	0.000262	0.479349	6.986314E-5	1981.020259	194.273136	66.975235	205.493877	0.103731	0.344748	4.397960	0.061017
4.597870	0.000272	0.519128	7.204663E-5	2145.401864	197.325750	70.206738	209.443161	0.097624	0.355791	4.597870	0.063395
4.797770	0.000282	0.562210	7.437568E-5	2323.453916	200.485582	73.620837	213.575505	0.091922	0.367213	4.797770	0.065752
4.997680	0.000294	0.608862	7.686138E-5	2516.267620	203.756082	77.228892	217.900993	0.086597	0.379026	4.997680	0.068517
5.197590	0.000302	0.659388	7.951663E-5	2725.065838	207.141674	81.044179	222.431635	0.081624	0.391250	5.197590	0.070432
5.397500	0.000315	0.714104	8.235465E-5	2951.240619	210.643965	85.079302	227.176953	0.076977	0.403901	5.397500	0.073362
5.597400	0.000326	0.773371	8.539106E-5	3196.121182	214.267863	89.349309	232.150848	0.072635	0.416998	5.597400	0.075910
5.797310	0.000334	0.837546	8.864121E-5	3461.351874	218.016110	93.870076	237.365994	0.068576	0.430565	5.797310	0.077681
5.997220	0.000346	0.907047	9.212345E-5	3748.591353	221.892480	98.658878	242.837079	0.064781	0.444625	5.997220	0.080650
6.197120	0.000356	0.982327	9.585794E-5	4059.703627	225.898896	103.733339	248.577788	0.061231	0.459203	6.197120	0.082956
6.397030	0.000365	1.063831	9.986462E-5	4396.582046	230.038823	109.113206	254.604697	0.057910	0.474325	6.397030	0.085041
6.596940	0.000377	1.152129	0.000104	4761.392046	234.315972	114.820925	260.936428	0.054803	0.490026	6.596940	0.087749
6.796850	0.000385	1.247727	0.000109	5156.537600	238.732037	120.879512	267.590811	0.051894	0.506340	6.796850	0.089650
6.996750	0.000398	1.351264	0.000114	5584.484079	243.288632	127.313298	274.587025	0.049170	0.523301	6.996750	0.092730
7.196660	0.000409	1.463416	0.000119	6047.899225	247.988258	134.149843	281.947436	0.046619	0.540952	7.196660	0.095243
7.396570	0.000418	1.584849	0.000125	6549.792527	252.831020	141.417791	289.693832	0.044229	0.559337	7.396570	0.097294
7.596480	0.000431	1.716378	0.000131	7093.261405	257.819606	149.150479	297.853680	0.041991	0.578507	7.596480	0.100407
7.796380	0.000441	1.858808	0.000138	7681.956761	262.952146	157.381675	306.451991	0.039892	0.598518	7.796380	0.102641
7.996290	0.000452	2.013064	0.000145	8319.495509	268.226606	166.146886	315.515926	0.037925	0.619427	7.996290	0.105215
8.196200	0.000462	2.180095	0.000153	9009.798769	273.643136	175.488147	325.079460	0.036081	0.641303	8.196200	0.107665
8.396110	0.000471	2.361037	0.000162	9757.480063	279.197813	185.449785	335.176135	0.034351	0.664224	8.396110	0.109682
8.596010	0.000485	2.556975	0.000171	10567.295592	284.884483	196.077684	345.840465	0.032727	0.688271	8.596010	0.112866
8.795920	0.000496	2.769148	0.000181	11444.250247	290.696373	207.422118	357.111070	0.031204	0.713535	8.795920	0.115436
8.995830	0.000505	2.998924	0.000192	12393.862832	296.626275	219.540089	369.032516	0.029775	0.740124	8.995830	0.117570
9.195730	0.000518	3.247833	0.000204	13422.349799	302.661866	232.491149	381.649498	0.028434	0.768155	9.195730	0.120573
9.395640	0.000528	3.517325	0.000217	14536.136809	308.791498	246.342885	395.015197	0.027175	0.797764	9.395640	0.122861
9.595550	0.000540	3.809218	0.000231	15742.606479	314.994698	261.163079	409.179439	0.025992	0.829103	9.595550	0.125674
9.795460	0.000551	4.125329	0.000246	17049.040710	321.250851	277.026488	424.200170	0.024881	0.862337	9.795460	0.128254
9.995360	0.000559	4.467686	0.000263	18463.655406	327.538223	294.020800	440.147155	0.023839	0.897669	9.995360	0.130150
10.195300	0.000573	4.838418	0.000282	19995.990349	333.821857	312.231829	457.083961	0.022859	0.935325	10.195300	0.133354
10.395200	0.000585	5.239940	0.000302	21655.196956	340.070980	331.762333	475.094219	0.021939	0.975568	10.395200	0.136104
10.595100	0.000596	5.674774	0.000324	23452.545012	346.236731	352.711746	494.252414	0.021075	1.018701	10.595100	0.138851
10.795000	0.000609	6.145690	0.000349	25398.559143	352.275974	375.201869	514.659892	0.020263	1.065079	10.795000	0.141893
10.994900	0.000618	6.655687	0.000376	27506.510743	358.125846	399.354766	536.412481	0.019501	1.115124	10.994900	0.143846
